,video_id,subject_id,EEG.AF3,EEG.F7,EEG.F3,EEG.FC5,EEG.T7,EEG.P7,EEG.O1,EEG.O2,EEG.P8,EEG.T8,EEG.FC6,EEG.F4,EEG.F8,EEG.AF4,subject_understood
0,0,0,4210.641113,4179.102539,4287.94873,4235.384766,4207.94873,4165.0,4135.897461,4170.0,4155.384766,4157.179688,4610.384766,4388.846191,4413.461426,4499.743652,0
1,0,0,4201.025879,4188.717773,4280.128418,4236.922852,4209.615234,4152.436035,4130.128418,4149.487305,4149.487305,4157.820313,4583.717773,4376.666504,4392.820313,4488.461426,0
2,0,0,4203.205078,4182.820313,4282.820313,4231.025879,4207.820313,4172.436035,4131.538574,4147.94873,4131.666504,4131.666504,4574.743652,4377.05127,4390.512695,4483.077148,0
3,0,0,4186.538574,4168.717773,4266.794922,4229.230957,4202.179688,4155.384766,4128.333496,4151.666504,4136.666504,4134.230957,4565.512695,4362.436035,4380.897461,4471.025879,0
4,0,0,4232.436035,4216.922852,4306.922852,4270.769043,4217.436035,4166.538574,4155.897461,4162.820313,4143.461426,4154.487305,4612.436035,4403.333496,4410.641113,4512.179688,0
5,0,0,4212.436035,4173.974121,4282.94873,4231.153809,4209.743652,4163.717773,4149.743652,4158.974121,4140.512695,4126.025879,4570.128418,4377.692383,4369.358887,4485.512695,0
6,0,0,4232.692383,4199.230957,4302.820313,4262.05127,4215.512695,4170.897461,4155.128418,4168.461426,4152.692383,4153.974121,4591.153809,4400.128418,4395.641113,4505.128418,0
7,0,0,4218.333496,4178.846191,4286.282227,4245.256348,4215.256348,4128.974121,4145.512695,4155.256348,4138.846191,4136.282227,4560.897461,4375.128418,4375.0,4486.666504,0
8,0,0,4207.179688,4170.0,4278.589844,4237.436035,4206.538574,4129.871582,4136.410156,4152.436035,4143.717773,4135.128418,4558.205078,4366.410156,4374.743652,4483.589844,0
9,0,0,4223.846191,4184.871582,4295.769043,4256.666504,4209.743652,4131.153809,4145.897461,4156.410156,4135.128418,4132.94873,4580.128418,4382.94873,4398.461426,4545.897461,0
10,0,0,4193.205078,4177.307617,4261.025879,4243.846191,4212.05127,4167.563965,4133.974121,4144.743652,4141.922852,4132.307617,4550.128418,4351.666504,4373.974121,4479.615234,0
11,0,0,4181.410156,4154.230957,4255.512695,4222.94873,4194.230957,4151.025879,4129.358887,4142.820313,4141.153809,4121.922852,4541.282227,4342.94873,4361.922852,4461.922852,0
12,0,0,4200.512695,4169.871582,4266.922852,4236.538574,4205.128418,4143.461426,4129.102539,4138.333496,4113.205078,4123.717773,4542.563965,4286.922852,4363.846191,4429.871582,0
13,0,0,4202.692383,4168.974121,4266.538574,4234.871582,4203.717773,4112.692383,4122.05127,4134.615234,4120.769043,4125.256348,4540.641113,4357.820313,4367.820313,4466.282227,0
14,0,0,4219.230957,4183.974121,4283.846191,4258.461426,4215.512695,4145.897461,4140.769043,4151.922852,4135.769043,4138.461426,4558.974121,4373.333496,4383.589844,4479.743652,0
15,0,0,4207.563965,4171.025879,4265.0,4236.666504,4202.820313,4133.205078,4124.871582,4146.410156,4135.641113,4126.794922,4553.205078,4362.563965,4379.871582,4466.410156,0
16,0,0,4220.897461,4211.153809,4278.205078,4257.307617,4206.794922,4125.897461,4122.179688,4133.717773,4121.025879,4125.384766,4570.641113,4358.846191,4392.307617,4471.922852,0
17,0,0,4196.538574,4193.077148,4252.692383,4261.282227,4211.922852,4115.256348,4110.256348,4142.179688,4115.384766,4140.384766,4568.589844,4216.410156,4378.205078,4387.563965,0
18,0,0,4194.358887,4166.538574,4262.820313,4246.538574,4212.05127,4116.794922,4117.820313,4135.769043,4130.128418,4120.128418,4545.0,4345.769043,4364.102539,4455.769043,0
19,0,0,4187.05127,4143.077148,4261.025879,4237.436035,4205.256348,4115.897461,4114.615234,4139.871582,4137.179688,4127.820313,4544.102539,4351.794922,4370.256348,4452.94873,0
20,0,0,4219.615234,4170.256348,4290.384766,4256.153809,4218.974121,4145.256348,4138.205078,4162.563965,4151.922852,4158.205078,4587.436035,4384.615234,4411.025879,4490.769043,0
21,0,0,4199.102539,4154.358887,4272.179688,4222.94873,4205.256348,4129.358887,4119.230957,4154.358887,4144.230957,4143.846191,4566.025879,4354.615234,4425.512695,4471.666504,0
22,0,0,4211.794922,4155.0,4289.743652,4231.282227,4208.846191,4140.897461,4136.794922,4170.128418,4154.102539,4147.05127,4571.666504,4380.256348,4418.205078,4487.307617,0
23,0,0,4207.820313,4168.974121,4280.512695,4228.589844,4208.974121,4144.615234,4138.333496,4151.025879,4136.410156,4122.563965,4533.077148,4362.94873,4370.0,4472.179688,0
24,0,0,4224.230957,4183.974121,4291.282227,4222.820313,4212.692383,4135.641113,4147.692383,4158.461426,4139.230957,4140.769043,4567.179688,4377.820313,4389.743652,4482.692383,0
25,0,0,4188.589844,4168.077148,4256.922852,4198.974121,4201.794922,4130.897461,4117.820313,4134.487305,4133.589844,4124.871582,4535.384766,4344.743652,4363.974121,4453.333496,0
26,0,0,4216.153809,4186.025879,4282.94873,4212.563965,4201.538574,4138.717773,4123.077148,4145.512695,4143.205078,4154.615234,4588.077148,4378.333496,4401.153809,4486.153809,0
27,0,0,4207.436035,4173.205078,4279.743652,4198.846191,4208.077148,4158.589844,4140.0,4165.384766,4171.410156,4166.922852,4576.282227,4378.333496,4391.538574,4487.563965,0
28,0,0,4199.230957,4173.205078,4280.641113,4192.179688,4205.769043,4148.461426,4127.436035,4147.820313,4144.487305,4143.974121,4552.820313,4359.615234,4376.153809,4487.179688,0
29,0,0,4190.128418,4172.179688,4271.410156,4195.128418,4220.769043,4168.333496,4137.307617,4152.179688,4135.897461,4135.128418,4550.256348,4360.0,4366.410156,4488.589844,0
30,0,0,4204.871582,4181.025879,4279.615234,4214.743652,4219.102539,4158.077148,4132.692383,4145.128418,4132.94873,4137.179688,4566.410156,4373.846191,4371.025879,4485.256348,0
31,0,0,4203.717773,4182.692383,4268.974121,4219.102539,4215.897461,4139.871582,4117.94873,4139.743652,4130.384766,4128.461426,4555.128418,4362.820313,4366.794922,4471.922852,0
32,0,0,4186.153809,4169.102539,4259.743652,4207.94873,4203.974121,4131.666504,4113.461426,4137.179688,4132.692383,4131.282227,4553.589844,4355.641113,4356.794922,4463.205078,0
33,0,0,4200.0,4195.769043,4271.538574,4238.974121,4210.769043,4148.589844,4133.333496,4154.743652,4143.461426,4138.846191,4560.0,4374.230957,4375.512695,4481.666504,0
34,0,0,4225.384766,4215.897461,4295.0,4268.717773,4218.589844,4155.512695,4144.230957,4155.641113,4142.307617,4148.589844,4586.153809,4392.820313,4410.641113,4502.307617,0
35,0,0,4224.743652,4201.282227,4298.974121,4243.205078,4212.820313,4179.358887,4155.641113,4176.666504,4162.563965,4152.820313,4587.692383,4400.512695,4400.128418,4507.692383,0
36,0,0,4240.384766,4208.461426,4313.333496,4250.384766,4215.897461,4163.333496,4143.717773,4173.205078,4154.487305,4162.692383,4608.717773,4406.025879,4422.563965,4520.128418,0
37,0,0,4202.820313,4182.94873,4277.179688,4233.077148,4207.820313,4135.384766,4132.563965,4162.94873,4152.179688,4137.692383,4570.256348,4366.538574,4430.128418,4483.974121,0
38,0,0,4212.563965,4195.897461,4283.717773,4232.05127,4209.871582,4139.487305,4129.615234,4161.794922,4147.436035,4156.282227,4606.025879,4378.461426,4437.692383,4514.615234,0
39,0,0,4217.436035,4196.922852,4295.769043,4238.077148,4221.794922,4144.615234,4143.846191,4163.846191,4140.256348,4141.794922,4573.333496,4380.128418,4391.025879,4506.794922,0
40,0,0,4228.077148,4199.615234,4300.512695,4239.358887,4222.94873,4142.436035,4147.436035,4170.512695,4157.436035,4157.692383,4587.563965,4388.717773,4401.922852,4517.05127,0
41,0,0,4235.512695,4242.179688,4297.692383,4268.846191,4235.256348,4136.410156,4130.897461,4150.384766,4153.205078,4150.897461,4600.897461,4381.025879,4426.666504,4522.820313,0
42,0,0,4170.384766,4164.743652,4250.128418,4195.384766,4206.922852,4139.871582,4119.615234,4135.256348,4133.974121,4113.077148,4533.333496,4330.384766,4351.153809,4463.461426,0
43,0,0,4178.461426,4165.384766,4259.230957,4200.641113,4213.077148,4139.487305,4117.307617,4136.922852,4150.769043,4126.282227,4548.077148,4336.922852,4363.205078,4475.641113,0
44,0,0,4186.282227,4173.461426,4261.282227,4207.179688,4216.538574,4153.589844,4118.333496,4135.0,4146.922852,4130.641113,4542.820313,4347.05127,4377.179688,4482.05127,0
45,0,0,4178.461426,4149.358887,4254.102539,4200.641113,4203.205078,4136.922852,4117.94873,4136.153809,4139.230957,4115.0,4522.307617,4339.102539,4373.205078,4474.743652,0
46,0,0,4207.436035,4166.794922,4274.615234,4224.487305,4214.358887,4160.512695,4139.230957,4163.205078,4172.692383,4139.102539,4564.358887,4373.974121,4378.974121,4503.077148,0
47,0,0,4215.256348,4177.94873,4276.153809,4227.05127,4218.974121,4160.384766,4135.384766,4140.897461,4124.230957,4125.641113,4569.487305,4372.820313,4366.922852,4496.794922,0
48,0,0,4204.743652,4177.820313,4274.102539,4220.897461,4214.230957,4158.461426,4138.589844,4147.563965,4140.897461,4128.333496,4570.512695,4366.666504,4373.077148,4496.153809,0
49,0,0,4206.794922,4182.307617,4276.922852,4222.436035,4217.563965,4165.256348,4140.512695,4163.333496,4156.153809,4141.922852,4583.461426,4379.743652,4371.922852,4501.025879,0
50,0,0,4213.333496,4181.794922,4290.641113,4224.230957,4213.589844,4154.871582,4137.820313,4151.410156,4138.589844,4146.410156,4591.153809,4382.179688,4394.487305,4506.025879,0
51,0,0,4223.589844,4196.922852,4297.436035,4242.179688,4226.922852,4175.256348,4154.743652,4170.384766,4159.230957,4159.487305,4613.077148,4388.974121,4412.179688,4511.922852,0
52,0,0,4212.307617,4175.256348,4293.589844,4224.358887,4217.94873,4182.436035,4149.487305,4163.717773,4143.461426,4142.94873,4590.512695,4383.461426,4391.282227,4504.358887,0
53,0,0,4212.692383,4187.94873,4288.461426,4239.358887,4238.589844,4168.974121,4155.897461,4167.307617,4151.794922,4137.692383,4576.410156,4374.871582,4376.153809,4499.615234,0
54,0,0,4221.025879,4195.512695,4296.025879,4247.436035,4231.666504,4170.128418,4158.461426,4171.410156,4148.461426,4133.717773,4592.436035,4380.128418,4381.538574,4502.820313,0
55,0,0,4229.743652,4215.512695,4300.256348,4258.077148,4233.461426,4162.307617,4152.692383,4163.205078,4148.717773,4156.666504,4623.461426,4388.717773,4427.820313,4517.692383,0
56,0,0,4223.333496,4183.077148,4300.0,4241.410156,4227.692383,4177.307617,4163.974121,4185.641113,4166.153809,4163.846191,4618.717773,4401.538574,4421.922852,4520.256348,0
57,0,0,4182.05127,4153.846191,4255.897461,4218.589844,4206.794922,4148.846191,4124.615234,4137.05127,4149.743652,4133.974121,4561.153809,4343.461426,4369.871582,4475.512695,0
58,0,0,4187.563965,4156.666504,4258.589844,4231.922852,4211.153809,4168.717773,4137.563965,4146.025879,4144.871582,4140.512695,4572.94873,4356.666504,4370.769043,4477.179688,0
59,0,0,4200.128418,4173.846191,4275.128418,4257.307617,4223.077148,4165.512695,4144.102539,4157.563965,4143.846191,4146.922852,4582.820313,4363.974121,4386.153809,4513.461426,0
60,0,0,4207.820313,4187.436035,4282.05127,4246.153809,4217.692383,4175.384766,4143.974121,4150.256348,4136.922852,4143.846191,4587.436035,4371.666504,4392.692383,4496.794922,0
61,0,0,4203.846191,4178.461426,4277.820313,4241.538574,4223.717773,4166.282227,4144.871582,4159.615234,4137.94873,4135.128418,4578.333496,4364.358887,4366.922852,4486.282227,0
62,0,0,4212.179688,4181.794922,4241.153809,4244.230957,4220.897461,4160.769043,4142.05127,4157.563965,4137.692383,4134.615234,4561.153809,4408.077148,3079.743652,4516.025879,0
63,0,0,4194.871582,4168.974121,4376.282227,4223.589844,4206.666504,4135.256348,4115.0,4132.563965,4122.05127,4126.282227,4525.897461,4343.974121,4284.871582,4452.307617,0
64,0,0,4260.128418,4221.410156,4398.717773,4258.846191,4221.538574,4145.897461,4122.820313,4123.974121,4092.05127,4127.563965,4620.0,4406.538574,4337.307617,4521.922852,0
65,0,0,4232.820313,4216.666504,4386.794922,4261.153809,4234.487305,4167.94873,4160.641113,4157.436035,4134.102539,4140.512695,4615.769043,4406.153809,4262.563965,4513.333496,0
66,0,0,4209.230957,4184.615234,4360.897461,4230.384766,4199.102539,4160.256348,4130.256348,4149.871582,4118.846191,4117.94873,4693.717773,4391.282227,4219.871582,4494.871582,0
67,0,0,4223.333496,4201.025879,4376.025879,4251.410156,4220.641113,4173.205078,4157.05127,4167.692383,4147.307617,4150.641113,4653.077148,4411.922852,4208.589844,4517.820313,0
68,0,0,4220.0,4199.358887,4375.897461,4244.871582,4220.641113,4142.820313,4144.487305,4173.461426,4146.922852,4158.717773,4643.333496,4402.179688,4334.871582,4517.94873,0
69,0,0,4206.282227,4194.102539,4260.641113,4233.461426,4225.897461,4152.563965,4135.256348,4152.563965,4136.153809,4147.563965,4543.461426,4390.256348,4618.077148,4494.230957,0
70,0,0,4231.410156,4204.743652,4297.05127,4248.461426,4229.230957,4141.282227,4141.666504,4163.589844,4132.436035,4165.0,4558.333496,4423.461426,4550.128418,4526.794922,0
71,0,0,4191.666504,4152.563965,4253.717773,4193.461426,4209.102539,4130.256348,4123.333496,4148.974121,4135.897461,4132.179688,4492.563965,4372.692383,4409.615234,4476.025879,0
72,0,0,4207.436035,4186.282227,4274.487305,4232.820313,4231.410156,4170.897461,4139.871582,4166.153809,4147.692383,4144.487305,4530.641113,4386.538574,4362.820313,4489.358887,0
73,0,0,4211.025879,4189.358887,4277.94873,4233.205078,4228.461426,4162.307617,4139.358887,4157.820313,4140.384766,4139.230957,4537.563965,4387.94873,4311.410156,4487.05127,0
74,0,0,4211.025879,4185.0,4284.230957,4229.615234,4230.512695,4169.358887,4155.0,4174.487305,4156.153809,4153.461426,4570.512695,4395.641113,4295.769043,4497.692383,0
75,0,0,4213.205078,4187.307617,4283.846191,4239.358887,4232.820313,4174.358887,4170.128418,4176.282227,4168.077148,4160.256348,4578.974121,4401.410156,4282.179688,4495.897461,0
76,0,0,4220.641113,4194.743652,4286.666504,4240.641113,4226.666504,4162.820313,4151.666504,4182.436035,4175.384766,4174.358887,4591.538574,4413.589844,4281.922852,4504.230957,0
77,0,0,4209.102539,4203.974121,4271.538574,4240.641113,4229.743652,4160.128418,4147.820313,4160.512695,4150.641113,4155.769043,4586.153809,4390.769043,4287.179688,4490.769043,0
78,0,0,4194.743652,4167.563965,4258.589844,4228.205078,4208.846191,4156.282227,4132.820313,4151.666504,4159.358887,4137.820313,4568.717773,4382.05127,4243.846191,4478.077148,0
79,0,0,4243.846191,4193.205078,4299.487305,4257.820313,4236.153809,4163.974121,4151.666504,4184.743652,4167.307617,4163.077148,4626.666504,4420.897461,4278.205078,4523.974121,0
80,0,0,4210.897461,4170.512695,4264.743652,4223.846191,4212.05127,4153.846191,4145.0,4158.333496,4151.666504,4131.922852,4574.102539,4377.94873,4242.820313,4487.692383,0
81,0,0,4208.717773,4173.461426,4269.102539,4228.974121,4223.333496,4147.94873,4150.897461,4168.974121,4150.128418,4135.897461,4592.563965,4378.461426,4261.922852,4487.692383,0
82,0,0,4193.589844,4158.461426,4257.820313,4211.922852,4206.666504,4147.436035,4145.897461,4157.179688,4149.487305,4133.205078,4572.692383,4367.692383,4254.615234,4476.025879,0
83,0,0,4207.820313,4168.717773,4269.230957,4230.512695,4215.256348,4142.05127,4138.589844,4146.025879,4131.794922,4132.692383,4566.922852,4369.871582,4289.743652,4485.256348,0
84,0,0,4210.128418,4169.102539,4276.410156,4240.128418,4219.871582,4156.794922,4145.512695,4153.974121,4138.974121,4138.589844,4573.461426,4376.153809,4264.871582,4490.512695,0
85,0,0,4209.230957,4169.871582,4266.922852,4236.153809,4220.256348,4149.358887,4136.025879,4150.384766,4140.128418,4138.974121,4571.153809,4369.358887,4277.820313,4488.077148,0
86,0,0,4200.128418,4161.025879,4260.384766,4226.282227,4213.846191,4136.666504,4140.641113,4150.512695,4135.256348,4137.563965,4582.05127,4375.512695,4274.230957,4486.410156,0
87,0,0,4202.692383,4171.410156,4258.205078,4241.153809,4221.410156,4159.615234,4147.179688,4154.102539,4133.974121,4134.871582,4570.256348,4365.0,4291.025879,4482.94873,0
88,0,0,4188.589844,4161.538574,4244.487305,4222.692383,4206.922852,4153.717773,4131.025879,4134.358887,4111.153809,4119.230957,4569.230957,4345.0,4264.743652,4469.615234,0
89,0,0,4222.563965,4183.717773,4276.282227,4245.769043,4227.179688,4161.538574,4156.538574,4179.615234,4153.846191,4160.512695,4617.05127,4395.128418,4311.922852,4512.692383,0
90,0,0,4194.743652,4163.333496,4248.205078,4214.615234,4204.743652,4137.05127,4135.0,4144.615234,4135.641113,4136.282227,4572.94873,4358.974121,4306.922852,4486.794922,0
91,0,0,4220.641113,4196.410156,4273.974121,4249.102539,4224.487305,4160.0,4143.974121,4150.256348,4146.410156,4152.692383,4600.128418,4382.05127,4329.102539,4518.333496,0
92,0,0,4202.94873,4184.871582,4261.922852,4248.461426,4217.94873,4170.512695,4164.871582,4164.487305,4142.692383,4137.307617,4568.974121,4377.94873,4336.153809,4495.897461,0
93,0,0,4218.205078,4192.179688,4266.666504,4247.436035,4211.794922,4132.692383,4148.974121,4166.025879,4144.487305,4143.589844,4576.794922,4380.128418,4357.94873,4500.0,0
94,0,0,4227.692383,4170.128418,4282.692383,4231.922852,4208.717773,4161.666504,4163.846191,4178.461426,4149.358887,4152.692383,4602.820313,4397.436035,4361.538574,4513.846191,0
95,0,0,4227.692383,4188.461426,4280.897461,4245.256348,4223.974121,4177.692383,4147.94873,4156.153809,4135.769043,4137.94873,4580.128418,4387.307617,4339.743652,4501.922852,0
96,0,0,4208.589844,4153.717773,4265.769043,4220.897461,4208.589844,4174.615234,4140.512695,4159.743652,4142.05127,4145.512695,4574.230957,4384.743652,4338.846191,4498.974121,0
97,0,0,4237.179688,4206.666504,4285.897461,4255.128418,4224.871582,4164.487305,4147.563965,4154.743652,4141.538574,4152.05127,4601.282227,4394.230957,4366.410156,4516.538574,0
98,0,0,4210.128418,4180.128418,4269.743652,4227.94873,4226.153809,4168.205078,4140.512695,4148.846191,4136.153809,4145.384766,4580.384766,4373.589844,4345.897461,4492.179688,0
99,0,0,4232.179688,4189.871582,4308.846191,4238.974121,4232.436035,4190.128418,4178.077148,4193.846191,4171.282227,4172.563965,4599.743652,4410.256348,4371.794922,4520.0,0
100,0,0,4216.794922,4188.589844,4284.487305,4230.641113,4223.974121,4159.871582,4143.205078,4156.538574,4154.230957,4157.820313,4585.256348,4378.461426,4365.641113,4523.717773,0
101,0,0,4222.94873,4200.512695,4285.769043,4249.102539,4237.692383,4185.256348,4153.333496,4173.077148,4161.025879,4163.461426,4601.153809,4393.205078,4367.820313,4513.589844,0
102,0,0,4186.153809,4166.025879,4243.717773,4224.487305,4220.769043,4167.94873,4134.102539,4140.897461,4133.846191,4130.128418,4550.256348,4351.538574,4338.077148,4468.333496,0
103,0,0,4194.358887,4167.94873,4255.769043,4223.333496,4220.256348,4161.922852,4124.487305,4147.307617,4145.256348,4142.179688,4562.436035,4362.307617,4347.436035,4482.179688,0
104,0,0,4194.487305,4165.128418,4255.256348,4218.077148,4221.153809,4171.025879,4130.641113,4148.205078,4140.256348,4134.743652,4551.410156,4361.538574,4346.666504,4481.410156,0
105,0,0,4203.717773,4154.615234,4263.205078,4214.487305,4206.922852,4161.538574,4129.487305,4166.666504,4154.358887,4156.922852,4582.94873,4381.153809,4369.743652,4495.0,0
106,0,0,4189.487305,4150.256348,4252.94873,4207.436035,4209.743652,4167.820313,4135.512695,4149.487305,4140.769043,4130.256348,4550.769043,4352.563965,4349.743652,4470.384766,0
107,0,0,4213.333496,4168.205078,4275.512695,4214.871582,4212.307617,4170.641113,4147.94873,4170.0,4151.538574,4135.256348,4573.333496,4379.102539,4368.333496,4496.153809,0
108,0,0,4221.410156,4182.179688,4285.384766,4222.179688,4220.0,4177.820313,4151.794922,4177.307617,4155.256348,4156.410156,4592.436035,4388.589844,4393.974121,4507.05127,0
109,0,0,4203.846191,4178.974121,4269.615234,4211.538574,4218.717773,4173.077148,4132.179688,4131.922852,4119.871582,4121.794922,4544.871582,4356.538574,4356.538574,4481.282227,0
110,0,0,4204.102539,4164.871582,4281.794922,4215.256348,4214.230957,4164.230957,4153.717773,4169.743652,4149.487305,4147.05127,4584.358887,4385.769043,4372.436035,4501.666504,0
111,0,0,4192.436035,4168.846191,4269.230957,4198.333496,4211.922852,4142.05127,4135.256348,4157.05127,4148.974121,4145.256348,4580.128418,4361.538574,4376.282227,4491.666504,0
112,0,0,4198.077148,4168.717773,4266.666504,4204.871582,4218.974121,4143.846191,4146.410156,4150.897461,4130.256348,4125.769043,4576.410156,4354.871582,4368.717773,4488.333496,0
113,0,0,4197.820313,4168.846191,4265.128418,4205.769043,4221.410156,4157.05127,4138.846191,4151.794922,4142.05127,4143.461426,4585.256348,4370.384766,4392.94873,4494.102539,0
114,0,0,4194.487305,4178.461426,4271.794922,4211.153809,4213.846191,4150.256348,4134.871582,4157.179688,4147.563965,4148.846191,4597.563965,4370.0,4406.538574,4500.384766,0
115,0,0,4222.820313,4196.538574,4296.282227,4230.769043,4230.0,4156.153809,4159.871582,4172.94873,4156.538574,4157.563965,4603.461426,4394.358887,4427.179688,4515.769043,0
116,0,0,4230.512695,4213.461426,4301.922852,4240.256348,4221.794922,4142.563965,4147.563965,4161.538574,4150.0,4144.102539,4601.794922,4392.94873,4449.871582,4518.077148,0
117,0,0,4212.820313,4183.333496,4293.333496,4221.666504,4226.666504,4148.974121,4142.05127,4161.282227,4146.153809,4139.102539,4567.820313,4385.0,4404.743652,4501.922852,0
118,0,0,4189.230957,4175.128418,4272.05127,4201.282227,4214.615234,4149.871582,4127.820313,4139.743652,4134.871582,4129.230957,4550.512695,4355.769043,4377.692383,4473.077148,0
119,0,0,4188.077148,4165.897461,4267.94873,4199.230957,4210.512695,4138.717773,4129.487305,4148.846191,4151.153809,4132.94873,4554.743652,4364.487305,4368.589844,4474.743652,0
120,0,0,4192.179688,4168.717773,4266.666504,4218.461426,4202.563965,4126.410156,4113.461426,4141.410156,4141.922852,4124.102539,4540.384766,4360.769043,4365.641113,4474.487305,0
121,0,0,4195.769043,4172.436035,4271.153809,4231.153809,4209.871582,4132.563965,4122.563965,4150.256348,4138.333496,4124.230957,4554.358887,4372.692383,4405.256348,4483.077148,0
122,0,0,4209.358887,4187.563965,4286.538574,4230.897461,4224.358887,4152.307617,4133.589844,4159.102539,4153.333496,4141.153809,4583.333496,4384.487305,4439.487305,4496.922852,0
123,0,0,4201.666504,4183.717773,4281.282227,4217.179688,4213.717773,4142.692383,4127.179688,4157.692383,4148.077148,4136.666504,4582.179688,4376.538574,4387.692383,4492.94873,0
124,0,0,4196.794922,4175.512695,4270.641113,4212.692383,4211.025879,4124.230957,4122.692383,4154.487305,4141.025879,4138.077148,4574.358887,4372.307617,4391.922852,4487.179688,0
125,0,0,4199.743652,4181.794922,4277.820313,4216.153809,4208.333496,4122.05127,4127.692383,4150.128418,4139.358887,4124.743652,4567.179688,4365.256348,4373.846191,4482.563965,0
126,0,0,4195.897461,4186.922852,4275.641113,4216.282227,4218.077148,4137.05127,4133.974121,4151.025879,4140.256348,4146.922852,4569.615234,4363.717773,4380.0,4481.666504,0
127,0,0,4156.025879,4181.410156,4269.358887,4203.333496,4210.128418,4137.179688,4128.461426,4157.94873,4152.692383,4148.589844,4563.717773,4374.102539,4379.487305,4484.615234,0
128,0,0,4126.794922,4170.256348,4265.512695,4201.282227,4209.102539,4129.102539,4122.436035,4155.384766,4149.871582,4131.025879,4560.769043,4365.769043,4373.589844,4483.205078,0
129,0,0,4112.436035,4166.025879,4262.820313,4199.615234,4205.897461,4128.846191,4127.307617,4157.436035,4155.256348,4136.025879,4560.256348,4367.820313,4376.153809,4478.461426,0
130,0,0,4143.846191,4201.282227,4300.0,4245.384766,4224.358887,4154.743652,4145.384766,4159.871582,4137.692383,4136.410156,4593.333496,4396.666504,4396.410156,4508.461426,0
131,0,0,4115.128418,4195.897461,4271.794922,4236.794922,4214.871582,4147.05127,4133.461426,4153.846191,4149.487305,4127.05127,4565.384766,4362.820313,4378.589844,4478.846191,0
132,0,0,4099.230957,4185.384766,4254.871582,4218.589844,4215.256348,4140.512695,4113.974121,4132.820313,4133.205078,4121.666504,4540.897461,4345.641113,4383.461426,4456.282227,0
133,0,0,4117.05127,4183.333496,4272.436035,4222.05127,4211.794922,4163.333496,4134.487305,4155.897461,4147.94873,4134.615234,4557.307617,4370.256348,4398.974121,4485.769043,0
134,0,0,4111.153809,4167.94873,4256.153809,4215.641113,4205.384766,4156.025879,4127.307617,4156.922852,4150.384766,4140.384766,4561.153809,4364.871582,4393.205078,4473.717773,0
135,0,0,4118.077148,4162.563965,4246.410156,4222.692383,4215.128418,4161.282227,4116.666504,4142.94873,4110.512695,4117.05127,4544.102539,4301.922852,4376.666504,4435.0,0
136,0,0,4147.94873,4173.846191,4284.743652,4226.282227,4214.102539,4142.05127,4128.333496,4161.538574,4154.871582,4143.717773,4567.179688,4376.153809,4404.615234,4486.666504,0
137,0,0,4137.307617,4159.743652,4269.743652,4213.461426,4192.563965,4122.563965,4115.641113,4134.743652,4122.820313,4130.256348,4545.512695,4356.025879,4391.282227,4467.563965,0
138,0,0,4147.307617,4162.94873,4277.05127,4223.205078,4205.384766,4142.436035,4130.769043,4154.102539,4148.333496,4152.94873,4575.0,4378.333496,4399.743652,4480.897461,0
139,0,0,4148.205078,4166.153809,4268.589844,4231.282227,4199.743652,4139.102539,4126.922852,4144.743652,4135.128418,4129.615234,4543.461426,4363.846191,4378.717773,4467.94873,0
140,0,0,4184.230957,4185.769043,4299.102539,4252.179688,4228.461426,4130.384766,4138.717773,4165.128418,4149.871582,4156.538574,4577.820313,4396.922852,4406.025879,4497.563965,0
141,0,0,4150.128418,4154.358887,4263.461426,4216.538574,4209.743652,4127.307617,4131.922852,4148.333496,4138.974121,4135.769043,4551.025879,4359.487305,4383.461426,4468.846191,0
142,0,0,4165.384766,4164.102539,4268.846191,4234.230957,4207.179688,4126.025879,4128.333496,4151.538574,4138.589844,4140.256348,4565.384766,4366.282227,4395.256348,4475.641113,0
143,0,0,4151.538574,4137.94873,4255.0,4219.615234,4193.974121,4120.512695,4124.743652,4141.538574,4129.487305,4116.794922,4546.410156,4351.153809,4370.897461,4457.563965,0
144,0,0,4179.743652,4160.384766,4271.153809,4258.077148,4217.307617,4142.307617,4141.538574,4154.615234,4134.358887,4126.153809,4582.563965,4372.307617,4394.102539,4473.077148,0
145,0,0,4177.692383,4160.512695,4272.563965,4238.077148,4201.794922,4126.666504,4133.077148,4142.692383,4133.974121,4121.025879,4581.538574,4360.0,4389.487305,4469.230957,0
146,0,0,4182.692383,4158.846191,4272.692383,4221.538574,4200.897461,4131.922852,4134.102539,4159.615234,4146.666504,4138.846191,4590.897461,4364.487305,4407.820313,4475.128418,0
147,0,0,4185.0,4155.769043,4263.846191,4217.436035,4205.256348,4127.05127,4125.512695,4155.384766,4144.102539,4139.487305,4589.487305,4337.307617,4412.436035,4468.974121,0
148,0,0,4201.025879,4166.153809,4283.333496,4225.641113,4206.666504,4141.538574,4132.179688,4151.410156,4136.025879,4135.128418,4579.743652,4354.743652,4408.077148,4486.794922,0
149,0,0,4212.436035,4152.307617,4293.589844,4244.871582,4219.871582,4152.820313,4143.974121,4154.615234,4138.077148,4137.94873,4574.615234,4362.307617,4429.871582,4501.538574,0
150,0,0,4190.384766,4024.358887,4268.717773,4204.615234,4203.589844,4165.256348,4131.282227,4147.820313,4133.846191,4130.769043,4551.153809,4342.05127,4402.692383,4471.666504,0
151,0,0,4190.256348,3937.307617,4269.615234,4199.358887,4208.846191,4167.05127,4136.025879,4156.538574,4139.358887,4136.794922,4585.0,4353.077148,4396.538574,4501.794922,0
152,0,0,4172.179688,3877.820557,4250.897461,4199.871582,4198.205078,4175.128418,4117.179688,4141.410156,4137.179688,4128.717773,4556.794922,4331.794922,4365.0,4462.436035,0
153,0,0,4192.05127,3877.435791,4263.717773,4210.512695,4191.282227,4178.974121,4127.307617,4147.436035,4137.94873,4127.179688,4559.102539,4350.384766,4367.820313,4467.692383,0
154,0,0,4205.897461,3884.615479,4277.94873,4229.615234,4200.256348,4170.128418,4149.358887,4174.102539,4156.025879,4160.0,4581.538574,4369.615234,4392.94873,4482.94873,0
155,0,0,4220.512695,3893.846191,4289.743652,4227.692383,4189.487305,4155.256348,4137.563965,4141.794922,4111.794922,4133.461426,4563.846191,4363.974121,4391.538574,4498.205078,0
156,0,0,4200.0,3903.589844,4268.077148,4221.794922,4173.205078,4149.615234,4128.589844,4154.615234,4143.589844,4130.128418,4553.461426,4351.666504,4383.205078,4481.282227,0
157,0,0,4212.05127,3924.102539,4281.025879,4225.641113,4192.05127,4152.307617,4136.538574,4146.538574,4123.846191,4126.025879,4546.410156,4365.641113,4389.615234,4483.205078,0
158,0,0,4199.102539,3928.205078,4263.077148,4226.153809,4173.717773,4151.025879,4140.641113,4155.128418,4140.384766,4133.461426,4549.615234,4351.794922,4377.94873,4468.717773,0
159,0,0,4204.871582,3955.256348,4261.794922,4241.922852,4178.205078,4143.717773,4143.077148,4160.0,4152.820313,4140.641113,4564.743652,4358.461426,4373.846191,4479.743652,0
160,0,0,4229.102539,4005.384521,4278.974121,4256.538574,4184.230957,4142.563965,4135.128418,4152.94873,4136.153809,4134.615234,4576.025879,4370.128418,4385.641113,4488.333496,0
161,0,0,4234.743652,4028.846191,4281.153809,4257.436035,4179.871582,4147.179688,4133.974121,4150.384766,4133.333496,4133.077148,4580.384766,4365.256348,4391.410156,4488.974121,0
162,0,0,4231.922852,4052.94873,4285.769043,4270.769043,4174.230957,4133.974121,4130.769043,4154.871582,4141.025879,4144.487305,4573.333496,4376.538574,4392.94873,4498.717773,0
163,0,0,4240.128418,4103.461426,4298.333496,4282.563965,4196.282227,4136.794922,4143.333496,4155.384766,4138.333496,4137.820313,4571.153809,4377.94873,4406.538574,4500.256348,0
164,0,0,4231.922852,4095.897461,4292.307617,4267.179688,4183.077148,4154.102539,4156.666504,4174.615234,4163.974121,4156.025879,4590.769043,4373.461426,4396.794922,4501.410156,0
165,0,0,4229.743652,4107.692383,4279.358887,4257.179688,4154.615234,4140.256348,4138.846191,4156.538574,4142.307617,4141.922852,4574.743652,4368.077148,4386.282227,4500.256348,0
166,0,0,4247.307617,4140.128418,4291.282227,4274.358887,4160.384766,4134.230957,4131.538574,4152.436035,4129.102539,4143.717773,4570.641113,4368.077148,4408.333496,4507.436035,0
167,0,0,4278.717773,4201.538574,4325.128418,4314.487305,4186.282227,4123.461426,4158.205078,4173.717773,4152.563965,4182.692383,4636.922852,4408.461426,4464.102539,4551.025879,0
168,0,0,4237.307617,4161.538574,4295.128418,4268.077148,4172.436035,4130.897461,4135.256348,4155.512695,4151.410156,4156.153809,4585.897461,4374.102539,4405.641113,4506.025879,0
169,0,0,4243.333496,4157.94873,4301.794922,4264.487305,4170.0,4122.179688,4150.641113,4185.641113,4175.897461,4175.256348,4600.641113,4397.436035,4408.077148,4510.769043,0
170,0,0,4218.974121,4162.05127,4284.871582,4265.769043,4182.436035,4139.871582,4135.384766,4166.666504,4158.974121,4161.410156,4579.230957,4376.282227,4403.461426,4491.410156,0
171,0,0,4199.871582,4167.05127,4265.512695,4235.384766,4180.769043,4124.615234,4130.897461,4163.333496,4163.077148,4153.333496,4570.897461,4364.615234,4394.743652,4484.230957,0
172,0,0,4197.692383,4169.487305,4266.666504,4238.589844,4191.666504,4129.615234,4140.128418,4167.179688,4152.563965,4146.794922,4569.230957,4363.974121,4379.743652,4479.230957,0
173,0,0,4212.179688,4171.794922,4278.846191,4233.846191,4186.794922,4117.179688,4132.436035,4168.461426,4157.94873,4153.846191,4577.179688,4376.153809,4382.436035,4497.05127,0
174,0,0,4212.179688,4173.077148,4278.846191,4230.512695,4187.05127,4118.205078,4131.410156,4157.436035,4141.666504,4139.102539,4568.205078,4363.974121,4370.769043,4491.922852,0
175,0,0,4231.538574,4215.0,4282.05127,4245.256348,4207.820313,4122.820313,4119.487305,4137.307617,4130.897461,4127.307617,4563.589844,4365.0,4367.05127,4495.641113,0
176,0,0,4211.538574,4188.589844,4272.563965,4235.897461,4199.615234,4133.974121,4135.512695,4157.307617,4140.128418,4130.128418,4555.769043,4372.94873,4364.743652,4491.282227,0
177,0,0,4195.384766,4184.230957,4257.692383,4227.820313,4195.256348,4119.615234,4122.563965,4158.974121,4143.589844,4133.717773,4573.974121,4362.05127,4364.487305,4479.230957,0
178,0,0,4197.563965,4211.538574,4257.820313,4249.102539,4216.922852,4130.384766,4126.794922,4143.077148,4128.077148,4114.358887,4552.179688,4348.205078,4356.538574,4462.692383,0
179,0,0,4223.846191,4227.692383,4283.846191,4278.589844,4217.436035,4139.615234,4140.256348,4162.436035,4148.717773,4150.897461,4592.436035,4381.025879,4395.0,4499.743652,0
180,0,0,4215.897461,4217.05127,4280.256348,4257.692383,4225.512695,4155.769043,4139.358887,4155.0,4139.487305,4137.820313,4573.461426,4371.025879,4386.025879,4488.589844,0
181,0,0,4195.384766,4198.461426,4258.974121,4236.794922,4216.922852,4142.820313,4121.794922,4146.282227,4122.563965,4112.820313,4535.128418,4345.769043,4369.871582,4465.256348,0
182,0,0,4230.128418,4215.641113,4293.846191,4255.256348,4228.974121,4164.102539,4140.769043,4173.589844,4150.384766,4142.307617,4570.641113,4390.512695,4398.846191,4506.666504,0
183,0,0,4208.461426,4195.897461,4269.487305,4257.94873,4221.410156,4168.589844,4137.820313,4153.589844,4136.794922,4130.641113,4550.769043,4363.846191,4370.641113,4480.641113,0
184,0,0,4251.025879,4237.179688,4310.641113,4287.307617,4240.512695,4161.538574,4153.717773,4166.538574,4128.205078,4150.641113,4601.922852,4398.077148,4423.974121,4525.384766,0
185,0,0,4227.05127,4207.05127,4285.256348,4261.025879,4218.974121,4164.358887,4132.436035,4175.128418,4140.256348,4141.538574,4615.641113,4382.820313,4397.179688,4503.333496,0
186,0,0,4200.512695,4195.384766,4260.641113,4251.666504,4213.717773,4156.410156,4106.666504,4134.487305,4125.897461,4127.05127,4578.846191,4349.102539,4380.256348,4467.179688,0
187,0,0,4187.307617,4182.307617,4254.358887,4244.743652,4227.436035,4158.333496,4116.153809,4138.846191,4124.487305,4117.179688,4549.102539,4344.615234,4374.358887,4468.077148,0
188,0,0,4209.102539,4199.230957,4268.717773,4256.410156,4220.0,4138.333496,4124.743652,4155.384766,4136.282227,4140.256348,4564.615234,4368.717773,4389.102539,4483.846191,0
189,0,0,4218.077148,4217.05127,4283.205078,4274.358887,4235.128418,4180.769043,4153.461426,4183.717773,4167.179688,4156.922852,4571.153809,4384.358887,4403.333496,4497.05127,0
190,0,0,4216.666504,4205.897461,4283.205078,4268.205078,4229.230957,4179.487305,4137.94873,4155.897461,4132.94873,4129.615234,4550.0,4371.666504,4395.384766,4483.717773,0
191,0,0,4226.282227,4227.179688,4286.794922,4277.179688,4246.153809,4166.794922,4147.94873,4172.692383,4149.102539,4144.871582,4555.384766,4388.974121,4436.666504,4496.794922,0
192,0,0,4205.897461,4215.512695,4265.128418,4267.436035,4231.922852,4160.769043,4123.461426,4141.025879,4132.307617,4131.153809,4548.717773,4367.820313,4402.307617,4483.717773,0
193,0,0,4243.974121,4241.025879,4302.436035,4284.102539,4248.846191,4163.717773,4142.692383,4166.922852,4153.461426,4160.769043,4611.794922,4403.205078,4435.256348,4520.641113,0
194,0,0,4227.05127,4234.615234,4288.461426,4271.794922,4231.922852,4146.025879,4144.230957,4170.128418,4154.743652,4162.94873,4601.282227,4391.666504,4429.615234,4507.307617,0
195,0,0,4218.461426,4216.410156,4280.641113,4259.615234,4237.05127,4152.05127,4141.410156,4159.102539,4148.205078,4150.128418,4573.205078,4383.205078,4399.230957,4494.102539,0
196,0,0,4222.94873,4229.102539,4282.820313,4259.102539,4225.0,4149.743652,4132.563965,4150.384766,4132.05127,4142.820313,4572.94873,4385.769043,4412.307617,4497.436035,0
197,0,0,4226.153809,4219.615234,4292.563965,4250.128418,4229.487305,4176.153809,4155.0,4168.333496,4137.436035,4145.897461,4580.897461,4391.153809,4413.974121,4505.128418,0
198,0,0,4202.307617,4197.436035,4272.94873,4228.333496,4219.487305,4179.871582,4141.922852,4152.692383,4131.153809,4119.102539,4543.077148,4354.743652,4382.563965,4473.205078,0
199,0,0,4203.077148,4216.538574,4277.05127,4241.025879,4227.307617,4171.794922,4137.307617,4140.897461,4127.94873,4121.538574,4540.769043,4356.282227,4380.0,4473.846191,0
200,0,0,4184.615234,4198.974121,4284.230957,4226.794922,4215.128418,4170.384766,4143.205078,4173.846191,4159.102539,4144.230957,4570.769043,4375.641113,4397.05127,4487.94873,0
201,0,0,4210.0,4201.025879,4281.538574,4239.230957,4218.461426,4177.179688,4142.05127,4162.563965,4143.461426,4131.153809,4566.538574,4376.666504,4403.333496,4489.358887,0
202,0,0,4212.563965,4205.384766,4278.461426,4238.205078,4217.94873,4166.538574,4137.563965,4173.589844,4151.538574,4150.769043,4562.692383,4376.410156,4407.179688,4484.102539,0
203,0,0,4188.077148,4192.563965,4253.974121,4214.487305,4213.333496,4170.512695,4120.0,4135.769043,4129.358887,4118.205078,4522.307617,4337.820313,4363.589844,4452.179688,0
204,0,0,4216.282227,4215.641113,4274.743652,4244.615234,4226.666504,4177.692383,4140.0,4156.153809,4138.461426,4142.307617,4567.820313,4373.717773,4412.436035,4485.512695,0
205,0,0,4224.615234,4221.794922,4294.743652,4253.205078,4233.461426,4175.769043,4150.0,4168.846191,4148.333496,4157.307617,4588.589844,4381.153809,4412.307617,4497.179688,0
206,0,0,4211.410156,4217.563965,4274.487305,4254.487305,4231.666504,4171.153809,4144.230957,4154.871582,4141.666504,4138.974121,4568.589844,4369.102539,4389.102539,4478.846191,0
207,0,0,4241.794922,4234.358887,4298.717773,4262.05127,4242.94873,4158.333496,4148.589844,4164.615234,4139.358887,4145.897461,4579.102539,4386.282227,4411.922852,4499.615234,0
208,0,0,4212.179688,4219.102539,4274.615234,4256.538574,4224.743652,4158.589844,4128.846191,4138.846191,4129.358887,4111.794922,4540.769043,4353.846191,4365.256348,4465.897461,0
209,0,0,4197.692383,4196.410156,4259.871582,4235.897461,4212.692383,4157.94873,4138.589844,4151.538574,4133.974121,4116.922852,4544.358887,4354.871582,4369.615234,4466.025879,0
210,0,0,4209.615234,4205.769043,4268.589844,4254.487305,4221.538574,4152.436035,4140.384766,4150.256348,4134.615234,4117.820313,4553.461426,4359.615234,4385.897461,4462.94873,0
211,0,0,4210.641113,4214.871582,4271.282227,4254.102539,4227.307617,4152.692383,4134.358887,4136.922852,4128.205078,4127.820313,4563.589844,4353.974121,4392.05127,4470.128418,0
212,0,0,4144.743652,4201.794922,4280.256348,4238.589844,4214.487305,4154.358887,4140.256348,4142.436035,4134.743652,4139.615234,4569.871582,4368.077148,4395.897461,4477.563965,0
213,0,0,4179.230957,4208.077148,4271.410156,4236.922852,4220.384766,4157.179688,4143.717773,4155.897461,4146.410156,4152.820313,4575.512695,4372.563965,4398.846191,4483.077148,0
214,0,0,4182.820313,4197.307617,4270.512695,4233.077148,4225.256348,4151.282227,4146.538574,4150.0,4134.102539,4133.205078,4553.205078,4359.615234,4396.666504,4476.153809,0
215,0,0,4198.846191,4198.205078,4278.077148,4230.897461,4227.94873,4153.461426,4140.769043,4156.282227,4143.205078,4149.743652,4565.384766,4368.461426,4407.692383,4483.205078,0
216,0,0,4224.743652,4203.846191,4295.769043,4240.769043,4221.153809,4164.743652,4147.94873,4164.487305,4146.282227,4148.205078,4569.743652,4378.717773,4410.384766,4498.077148,0
217,0,0,4211.922852,4200.384766,4282.94873,4241.794922,4217.563965,4169.487305,4139.102539,4149.743652,4140.384766,4135.641113,4570.641113,4373.589844,4394.487305,4489.102539,0
218,0,0,4223.077148,4226.153809,4287.436035,4271.538574,4237.94873,4180.128418,4147.05127,4146.922852,4133.974121,4137.05127,4581.794922,4374.230957,4403.077148,4490.641113,0
219,0,0,4229.871582,4221.025879,4289.871582,4267.94873,4226.025879,4170.128418,4143.846191,4160.769043,4159.102539,4149.230957,4598.333496,4387.563965,4409.230957,4498.205078,0
220,0,0,4245.897461,4201.922852,4309.230957,4259.102539,4235.128418,4189.487305,4157.436035,4178.974121,4173.077148,4158.974121,4605.256348,4395.769043,4412.820313,4511.538574,0
221,0,0,4211.666504,4174.871582,4280.769043,4238.589844,4225.128418,4158.589844,4130.769043,4147.307617,4176.410156,4130.512695,4557.179688,4352.692383,4377.307617,4477.179688,0
222,0,0,4204.358887,4174.871582,4278.205078,4234.487305,4222.307617,4147.692383,4133.077148,4156.282227,4171.410156,4134.743652,4566.794922,4359.102539,4384.487305,4481.922852,0
223,0,0,4220.769043,4187.307617,4283.205078,4247.179688,4228.461426,4170.128418,4142.563965,4166.025879,4167.436035,4145.897461,4583.717773,4370.384766,4400.512695,4494.615234,0
224,0,0,4226.153809,4189.102539,4287.436035,4249.615234,4235.641113,4162.563965,4147.692383,4154.871582,4156.922852,4143.846191,4573.846191,4366.922852,4400.384766,4491.282227,0
225,0,0,4222.179688,4199.615234,4294.487305,4253.846191,4228.717773,4159.358887,4161.025879,4161.025879,4159.487305,4154.871582,4585.384766,4370.256348,4408.717773,4499.615234,0
226,0,0,4184.487305,4170.641113,4281.922852,4238.974121,4207.692383,4147.563965,4139.230957,4153.461426,4158.333496,4135.0,4557.692383,4361.666504,4376.153809,4493.846191,0
227,0,0,4201.153809,4181.153809,4284.102539,4251.794922,4227.563965,4143.205078,4145.512695,4158.205078,4155.384766,4145.769043,4570.769043,4377.563965,4386.410156,4497.94873,0
228,0,0,4192.307617,4180.641113,4285.769043,4244.230957,4223.589844,4154.230957,4138.077148,4166.538574,4159.230957,4150.769043,4570.769043,4381.666504,4396.666504,4495.0,0
229,0,0,4193.205078,4187.436035,4280.384766,4246.922852,4216.666504,4158.077148,4132.94873,4151.794922,4146.153809,4143.077148,4567.692383,4371.666504,4399.230957,4486.153809,0
230,0,0,4177.692383,4168.589844,4262.692383,4227.820313,4215.769043,4156.922852,4114.487305,4151.794922,4139.230957,4124.871582,4541.922852,4351.282227,4377.692383,4469.615234,0
231,0,0,4206.794922,4192.94873,4280.641113,4243.846191,4213.846191,4158.846191,4122.307617,4154.487305,4145.641113,4135.256348,4566.794922,4370.128418,4403.333496,4492.692383,0
232,0,0,4206.538574,4186.794922,4280.769043,4233.333496,4205.512695,4133.461426,4112.179688,4145.0,4136.538574,4133.333496,4569.743652,4364.487305,4391.666504,4489.871582,0
233,0,0,4213.333496,4190.384766,4283.846191,4253.589844,4221.025879,4139.102539,4119.871582,4146.410156,4136.025879,4131.538574,4568.077148,4370.641113,4385.128418,4487.05127,0
234,0,0,4220.128418,4180.384766,4281.153809,4248.333496,4215.512695,4140.0,4122.820313,4153.077148,4135.256348,4136.410156,4566.410156,4373.974121,4383.461426,4487.05127,0
235,0,0,4221.410156,4184.230957,4279.487305,4249.743652,4210.897461,4150.0,4119.487305,4155.769043,4134.230957,4143.461426,4566.666504,4374.102539,4393.333496,4502.179688,0
236,0,0,4205.769043,4173.461426,4272.94873,4232.05127,4203.589844,4170.769043,4114.102539,4155.512695,4135.256348,4143.205078,4572.307617,4361.538574,4382.179688,4482.179688,0
237,0,0,4209.358887,4186.794922,4267.179688,4241.025879,4219.615234,4169.102539,4125.384766,4146.282227,4133.077148,4132.436035,4555.128418,4359.102539,4389.871582,4472.563965,0
238,0,0,4201.282227,4171.410156,4255.769043,4242.307617,4204.743652,4123.205078,4104.743652,4124.358887,4106.410156,4101.666504,4521.282227,4344.358887,4369.358887,4459.102539,0
239,0,0,4219.615234,4185.641113,4270.769043,4247.820313,4212.436035,4134.487305,4107.307617,4127.692383,4113.205078,4128.461426,4553.974121,4359.871582,4378.461426,4473.846191,0
240,0,0,4242.692383,4198.205078,4302.307617,4270.897461,4236.025879,4178.846191,4157.563965,4186.922852,4158.846191,4168.589844,4595.0,4400.512695,4408.333496,4510.641113,0
241,0,0,4209.102539,4165.897461,4265.256348,4242.307617,4223.589844,4167.820313,4137.05127,4133.589844,4103.461426,4109.871582,4537.94873,4346.794922,4357.179688,4460.0,0
242,0,0,4220.128418,4168.589844,4268.717773,4245.128418,4204.743652,4148.077148,4121.282227,4135.641113,4111.282227,4118.974121,4540.384766,4358.205078,4373.333496,4473.846191,0
243,0,0,4225.641113,4181.025879,4279.487305,4259.102539,4214.487305,4149.102539,4122.436035,4154.230957,4142.94873,4145.897461,4570.897461,4375.641113,4401.410156,4487.307617,0
244,0,0,4214.871582,4155.384766,4265.641113,4245.384766,4216.666504,4171.282227,4122.94873,4133.333496,4106.922852,4123.077148,4553.077148,4356.410156,4386.153809,4469.487305,0
245,0,0,4210.256348,4156.538574,4262.94873,4236.410156,4210.128418,4156.153809,4123.974121,4147.436035,4130.384766,4120.256348,4545.641113,4354.358887,4382.05127,4470.769043,0
246,0,0,4227.692383,4170.512695,4279.487305,4244.230957,4216.538574,4175.384766,4130.128418,4143.717773,4116.922852,4124.615234,4551.538574,4365.256348,4395.512695,4487.05127,0
247,0,0,4216.410156,4169.487305,4275.512695,4235.384766,4207.307617,4154.871582,4123.589844,4139.615234,4127.307617,4128.077148,4550.897461,4366.153809,4387.94873,4479.615234,0
248,0,0,4210.0,4174.487305,4267.820313,4239.358887,4216.025879,4159.487305,4131.025879,4155.512695,4140.641113,4137.179688,4553.717773,4369.102539,4388.333496,4478.077148,0
249,0,0,4213.974121,4172.563965,4276.410156,4234.487305,4219.230957,4157.436035,4139.615234,4167.179688,4151.794922,4147.179688,4562.563965,4381.410156,4393.974121,4485.512695,0
250,0,0,4225.384766,4190.384766,4285.641113,4245.384766,4222.563965,4146.794922,4130.769043,4149.871582,4135.897461,4142.692383,4558.205078,4376.666504,4403.077148,4482.820313,0
251,0,0,4209.102539,4170.384766,4274.487305,4228.974121,4211.153809,4143.333496,4132.307617,4155.384766,4142.94873,4145.897461,4562.307617,4373.846191,4393.205078,4478.077148,0
252,0,0,4199.230957,4153.461426,4266.922852,4223.589844,4208.974121,4148.205078,4129.358887,4142.563965,4128.461426,4135.641113,4550.641113,4371.666504,4389.102539,4466.282227,0
253,0,0,4220.769043,4186.538574,4283.589844,4245.641113,4216.282227,4146.794922,4146.666504,4164.615234,4142.179688,4152.05127,4569.487305,4397.179688,4410.128418,4495.0,0
254,0,0,4222.436035,4186.538574,4281.410156,4245.512695,4216.410156,4143.077148,4144.358887,4154.871582,4140.0,4151.025879,4567.307617,4392.307617,4416.666504,4492.692383,0
255,0,0,4209.102539,4185.512695,4269.230957,4236.538574,4208.461426,4134.871582,4140.0,4140.384766,4125.384766,4128.461426,4544.358887,4365.512695,4390.769043,4474.743652,0
256,0,0,4226.410156,4197.563965,4285.256348,4259.230957,4220.897461,4141.153809,4152.563965,4160.769043,4137.307617,4146.282227,4570.0,4396.794922,4397.307617,4497.307617,0
257,0,0,4226.025879,4207.563965,4284.743652,4258.461426,4217.692383,4145.256348,4135.384766,4147.307617,4130.512695,4135.641113,4553.846191,4379.871582,4402.436035,4490.0,0
258,0,0,4237.436035,4232.179688,4295.256348,4285.0,4237.820313,4163.717773,4149.102539,4162.179688,4137.563965,4147.436035,4571.666504,4398.589844,4425.769043,4504.230957,0
259,0,0,4256.410156,4223.589844,4323.333496,4305.641113,4241.922852,4176.922852,4167.05127,4181.666504,4151.922852,4168.077148,4587.563965,4423.846191,4431.410156,4523.077148,0
260,0,0,4222.820313,4193.589844,4285.128418,4266.153809,4226.282227,4170.128418,4140.641113,4149.102539,4140.384766,4145.256348,4555.512695,4392.307617,4399.358887,4487.436035,0
261,0,0,4202.563965,4187.307617,4264.871582,4247.94873,4227.05127,4157.820313,4131.025879,4140.256348,4139.358887,4122.820313,4520.128418,4362.05127,4381.538574,4456.153809,0
262,0,0,4218.589844,4187.563965,4287.563965,4257.94873,4228.205078,4166.538574,4144.487305,4157.436035,4138.846191,4134.743652,4548.077148,4385.0,4393.589844,4477.05127,0
263,0,0,4231.410156,4206.282227,4294.743652,4270.0,4231.410156,4173.589844,4155.0,4171.538574,4154.871582,4150.897461,4571.794922,4391.025879,4403.461426,4486.410156,0
264,0,0,4205.0,4173.077148,4271.538574,4256.153809,4220.256348,4182.179688,4156.794922,4171.025879,4152.94873,4146.794922,4570.641113,4385.769043,4385.897461,4471.922852,0
265,0,0,4216.025879,4166.410156,4283.974121,4254.230957,4209.358887,4143.717773,4144.743652,4153.846191,4132.436035,4153.717773,4591.282227,4385.641113,4402.94873,4484.102539,0
266,0,0,4193.333496,4168.717773,4268.077148,4248.205078,4213.077148,4139.615234,4138.717773,4147.436035,4136.794922,4133.717773,4568.974121,4357.94873,4382.94873,4461.025879,0
267,0,0,4200.512695,4162.179688,4268.077148,4254.358887,4206.410156,4128.974121,4135.641113,4154.615234,4151.025879,4145.897461,4576.025879,4358.333496,4382.94873,4467.563965,0
268,0,0,4202.179688,4156.025879,4264.871582,4251.922852,4213.077148,4146.025879,4130.897461,4147.94873,4153.846191,4141.666504,4574.743652,4351.153809,4389.358887,4467.05127,0
269,0,0,4202.820313,4171.794922,4282.179688,4258.461426,4235.897461,4150.641113,4153.717773,4165.512695,4149.102539,4135.384766,4575.384766,4369.615234,4388.717773,4477.05127,0
270,0,0,4203.205078,4177.179688,4282.436035,4256.153809,4220.769043,4134.615234,4126.153809,4140.128418,4141.666504,4134.487305,4566.282227,4364.358887,4391.410156,4479.487305,0
271,0,0,4215.256348,4184.743652,4292.05127,4276.922852,4231.282227,4159.871582,4134.871582,4161.922852,4165.512695,4163.077148,4598.589844,4380.769043,4424.871582,4494.871582,0
272,0,0,4230.0,4202.563965,4301.922852,4274.487305,4235.0,4156.794922,4138.717773,4162.05127,4151.794922,4163.077148,4607.94873,4392.05127,4441.153809,4504.615234,0
273,0,0,4212.179688,4175.769043,4288.717773,4248.077148,4230.897461,4158.974121,4151.410156,4167.307617,4169.871582,4157.05127,4584.102539,4377.94873,4403.333496,4485.769043,0
274,0,0,4221.153809,4180.128418,4291.922852,4241.025879,4224.615234,4151.538574,4134.358887,4149.230957,4126.282227,4127.94873,4573.333496,4374.358887,4419.871582,4488.077148,0
275,0,0,4222.307617,4194.230957,4291.025879,4248.333496,4223.205078,4168.846191,4131.282227,4158.846191,4155.256348,4154.871582,4608.717773,4377.179688,4417.05127,4491.922852,0
276,0,0,4219.871582,4169.615234,4287.307617,4238.846191,4219.871582,4177.05127,4141.666504,4173.333496,4174.871582,4162.94873,4604.230957,4383.077148,4429.230957,4494.230957,0
277,0,0,4207.05127,4173.974121,4271.282227,4228.205078,4222.307617,4167.94873,4111.410156,4135.769043,4138.717773,4158.717773,4581.794922,4358.077148,4420.769043,4484.230957,0
278,0,0,4189.743652,4151.538574,4259.615234,4215.897461,4207.692383,4159.358887,4125.0,4150.0,4144.487305,4134.358887,4557.563965,4351.410156,4395.769043,4470.641113,0
279,0,0,4204.358887,4156.922852,4265.0,4215.256348,4206.922852,4137.05127,4118.333496,4143.589844,4129.358887,4120.897461,4547.307617,4349.230957,4391.922852,4478.974121,0
280,0,0,4213.461426,4179.487305,4276.025879,4237.692383,4221.922852,4140.384766,4119.358887,4143.333496,4137.563965,4138.974121,4577.94873,4360.512695,4408.589844,4487.436035,0
281,0,0,4237.05127,4208.717773,4300.128418,4250.769043,4215.641113,4114.102539,4132.307617,4151.666504,4143.717773,4149.230957,4591.153809,4374.358887,4430.897461,4503.846191,0
282,0,0,4240.128418,4201.538574,4304.615234,4248.205078,4215.384766,4123.461426,4134.102539,4171.410156,4161.153809,4172.436035,4612.307617,4391.153809,4448.333496,4513.205078,0
283,0,0,4208.077148,4180.512695,4275.512695,4222.820313,4206.410156,4118.974121,4125.128418,4135.769043,4121.794922,4123.846191,4558.461426,4353.589844,4401.410156,4478.461426,0
284,0,0,4217.179688,4190.0,4282.94873,4229.871582,4212.94873,4135.0,4125.0,4171.794922,4156.666504,4153.333496,4598.077148,4376.666504,4415.897461,4490.256348,0
285,0,0,4218.589844,4174.230957,4285.641113,4243.077148,4218.205078,4141.410156,4136.922852,4158.461426,4139.487305,4141.666504,4584.102539,4371.666504,4406.794922,4490.641113,0
286,0,0,4227.692383,4170.256348,4300.128418,4259.487305,4222.436035,4148.717773,4150.128418,4168.717773,4143.205078,4137.563965,4599.102539,4381.410156,4414.358887,4508.205078,0
287,0,0,4226.410156,4153.333496,4300.128418,4247.307617,4215.384766,4161.410156,4136.538574,4173.717773,4152.692383,4151.282227,4601.282227,4382.563965,4396.153809,4509.871582,0
288,0,0,4211.282227,4154.487305,4283.846191,4256.153809,4216.153809,4155.769043,4148.077148,4168.461426,4152.94873,4129.871582,4576.025879,4370.0,4389.871582,4495.512695,0
289,0,0,4204.102539,4163.846191,4271.410156,4247.307617,4210.897461,4149.487305,4135.256348,4146.410156,4130.641113,4113.077148,4542.563965,4349.871582,4378.077148,4473.846191,0
290,0,0,4215.256348,4172.692383,4276.025879,4256.666504,4209.358887,4156.025879,4151.153809,4175.0,4168.589844,4148.846191,4591.410156,4385.128418,4451.282227,4498.333496,0
291,0,0,4231.153809,4187.307617,4296.025879,4268.974121,4231.025879,4177.179688,4171.025879,4174.102539,4159.358887,4149.358887,4597.436035,4387.05127,4419.102539,4504.871582,0
292,0,0,4220.769043,4182.692383,4281.153809,4246.153809,4225.256348,4157.94873,4149.871582,4157.179688,4138.333496,4142.692383,4576.538574,4379.358887,4407.820313,4494.743652,0
293,0,0,4217.179688,4183.333496,4283.333496,4248.333496,4223.461426,4175.0,4162.692383,4163.205078,4146.666504,4141.794922,4571.282227,4379.102539,4397.94873,4495.512695,0
294,0,0,4237.05127,4189.230957,4301.794922,4264.230957,4229.487305,4178.461426,4180.769043,4185.641113,4165.769043,4162.820313,4598.589844,4400.0,4421.282227,4516.153809,0
295,0,0,4195.128418,4187.307617,4262.820313,4232.94873,4214.743652,4153.974121,4135.128418,4135.384766,4131.025879,4117.05127,4544.743652,4346.794922,4375.384766,4470.384766,0
296,0,0,4189.230957,4166.282227,4262.436035,4215.897461,4213.461426,4154.743652,4135.128418,4162.307617,4154.871582,4133.333496,4552.05127,4367.820313,4381.282227,4474.871582,0
297,0,0,4222.820313,4191.282227,4288.077148,4248.846191,4225.897461,4153.717773,4149.871582,4166.153809,4150.0,4136.282227,4580.512695,4388.717773,4398.461426,4499.871582,0
298,0,0,4212.307617,4187.563965,4278.461426,4242.94873,4222.94873,4161.538574,4132.692383,4154.615234,4144.358887,4138.974121,4573.333496,4362.307617,4387.05127,4485.512695,0
299,0,0,4200.512695,4185.384766,4268.589844,4239.230957,4212.692383,4151.538574,4132.820313,4141.666504,4133.461426,4129.615234,4572.307617,4359.743652,4377.563965,4478.333496,0
300,0,0,4212.563965,4202.436035,4286.410156,4248.717773,4218.717773,4162.94873,4139.871582,4162.179688,4149.487305,4148.974121,4589.871582,4374.358887,4402.436035,4499.102539,0
301,0,0,4206.666504,4202.05127,4282.307617,4241.282227,4207.692383,4154.230957,4133.205078,4150.897461,4150.641113,4139.871582,4568.717773,4368.846191,4388.846191,4486.922852,0
302,0,0,4222.307617,4204.743652,4289.743652,4251.538574,4209.615234,4147.179688,4134.102539,4153.333496,4149.487305,4146.025879,4582.692383,4366.794922,4404.358887,4496.282227,0
303,0,0,4213.846191,4213.717773,4291.282227,4258.974121,4227.05127,4172.05127,4140.512695,4156.794922,4142.692383,4156.282227,4589.102539,4366.538574,4411.922852,4498.846191,0
304,0,0,4211.025879,4202.436035,4281.025879,4255.897461,4227.05127,4178.205078,4147.820313,4146.538574,4133.333496,4132.692383,4566.153809,4358.333496,4387.307617,4489.615234,0
305,0,0,4205.897461,4192.05127,4275.641113,4238.205078,4228.205078,4154.743652,4140.897461,4149.615234,4143.333496,4140.256348,4556.922852,4362.820313,4391.153809,4484.615234,0
306,0,0,4220.512695,4207.179688,4289.743652,4255.641113,4232.94873,4154.487305,4148.077148,4151.666504,4138.717773,4138.461426,4577.563965,4377.307617,4399.358887,4502.05127,0
307,0,0,4231.666504,4205.897461,4292.820313,4253.974121,4221.538574,4142.692383,4135.641113,4159.615234,4148.461426,4146.538574,4598.077148,4387.692383,4408.205078,4513.717773,0
308,0,0,4184.102539,4199.743652,4279.230957,4252.05127,4223.205078,4149.743652,4135.769043,4149.102539,4138.461426,4130.0,4562.05127,4357.94873,4377.692383,4481.025879,0
309,0,0,4182.94873,4188.846191,4271.794922,4241.922852,4218.077148,4147.820313,4132.94873,4146.153809,4135.512695,4131.794922,4559.358887,4355.769043,4387.94873,4480.0,0
310,0,0,4203.974121,4212.94873,4300.128418,4259.230957,4226.922852,4165.128418,4151.410156,4169.615234,4156.794922,4153.846191,4583.846191,4386.538574,4413.333496,4511.282227,0
311,0,0,4192.436035,4198.077148,4279.102539,4252.94873,4220.512695,4154.358887,4142.05127,4152.436035,4134.871582,4142.692383,4568.333496,4367.179688,4398.589844,4489.102539,0
312,0,0,4195.384766,4200.256348,4280.512695,4252.820313,4227.692383,4163.077148,4136.666504,4151.666504,4135.641113,4138.077148,4569.487305,4370.0,4400.384766,4487.94873,0
313,0,0,4193.846191,4197.692383,4270.897461,4244.871582,4225.769043,4152.179688,4133.589844,4143.077148,4140.256348,4152.05127,4572.563965,4358.461426,4409.743652,4482.820313,0
314,0,0,4186.666504,4182.820313,4270.769043,4229.871582,4215.128418,4149.871582,4145.512695,4157.692383,4144.615234,4134.230957,4560.128418,4360.384766,4396.922852,4483.846191,0
315,0,0,4236.794922,4232.563965,4307.436035,4281.794922,4230.256348,4153.589844,4157.820313,4155.256348,4132.563965,4144.743652,4581.153809,4385.0,4422.820313,4512.563965,0
316,0,0,4220.512695,4208.846191,4296.538574,4258.717773,4238.461426,4156.282227,4151.153809,4172.820313,4169.743652,4158.205078,4586.666504,4379.743652,4409.230957,4497.436035,0
317,0,0,4212.307617,4190.256348,4288.974121,4247.179688,4220.512695,4148.461426,4129.358887,4157.179688,4156.794922,4155.128418,4573.589844,4378.717773,4402.94873,4490.0,0
318,0,0,4208.205078,4203.077148,4287.820313,4250.641113,4233.205078,4164.871582,4136.153809,4165.641113,4157.692383,4157.179688,4571.922852,4376.410156,4399.615234,4490.512695,0
319,0,0,4229.871582,4200.897461,4300.641113,4259.358887,4226.922852,4153.974121,4136.410156,4155.769043,4155.384766,4161.922852,4592.94873,4386.410156,4431.410156,4501.666504,0
320,0,0,4204.615234,4182.307617,4280.256348,4251.153809,4230.384766,4167.563965,4141.794922,4171.794922,4163.846191,4148.717773,4570.641113,4370.769043,4409.230957,4485.128418,0
321,0,0,4207.436035,4186.922852,4282.307617,4253.461426,4235.384766,4171.153809,4140.0,4156.153809,4143.205078,4127.94873,4556.922852,4368.589844,4379.743652,4477.307617,0
322,0,0,4203.205078,4186.794922,4280.512695,4255.0,4240.256348,4164.487305,4140.256348,4157.820313,4136.666504,4111.410156,4542.179688,4353.205078,4360.128418,4469.871582,0
323,0,0,4205.641113,4166.410156,4273.974121,4241.922852,4225.769043,4165.897461,4137.307617,4155.128418,4137.563965,4123.205078,4538.333496,4353.205078,4363.333496,4461.666504,0
324,0,0,4217.179688,4180.0,4289.358887,4262.05127,4229.487305,4177.436035,4153.077148,4173.461426,4158.974121,4155.769043,4563.461426,4374.487305,4407.307617,4493.205078,0
325,0,0,4248.717773,4204.487305,4317.563965,4287.563965,4238.205078,4175.0,4158.333496,4179.743652,4149.615234,4159.487305,4594.487305,4406.153809,4412.820313,4513.333496,0
326,0,0,4241.794922,4185.897461,4306.153809,4289.358887,4244.743652,4172.563965,4175.384766,4187.94873,4163.846191,4170.512695,4600.769043,4405.0,4407.179688,4502.05127,0
327,0,0,4226.282227,4181.922852,4287.94873,4260.641113,4227.692383,4151.794922,4146.410156,4165.769043,4137.692383,4135.256348,4565.897461,4375.0,4380.256348,4474.102539,0
328,0,0,4236.153809,4194.487305,4296.538574,4272.436035,4237.05127,4154.743652,4145.256348,4162.94873,4144.615234,4145.0,4576.025879,4384.871582,4409.871582,4485.384766,0
329,0,0,4227.563965,4189.871582,4290.897461,4266.922852,4234.487305,4150.512695,4136.025879,4166.922852,4145.128418,4150.769043,4586.410156,4386.922852,4430.256348,4488.974121,0
330,0,0,4237.820313,4179.615234,4304.230957,4263.717773,4230.128418,4152.94873,4148.717773,4165.0,4142.563965,4134.102539,4576.282227,4388.205078,4401.538574,4492.563965,0
331,0,0,4208.717773,4164.615234,4280.769043,4245.897461,4237.563965,4153.461426,4140.512695,4169.102539,4148.974121,4134.871582,4565.256348,4367.692383,4407.179688,4478.589844,0
332,0,0,4234.743652,4179.743652,4301.922852,4269.615234,4255.128418,4172.820313,4153.077148,4187.307617,4160.384766,4153.205078,4581.794922,4399.230957,4406.794922,4505.512695,0
333,0,0,4221.666504,4169.358887,4302.692383,4264.358887,4248.846191,4166.666504,4154.487305,4179.615234,4159.230957,4151.794922,4585.384766,4394.102539,4392.307617,4506.666504,0
334,0,0,4185.256348,4165.256348,4270.769043,4246.794922,4246.794922,4164.743652,4150.0,4166.410156,4135.128418,4130.128418,4565.128418,4363.846191,4380.128418,4477.94873,0
335,0,0,4215.256348,4197.05127,4303.717773,4266.794922,4259.102539,4168.974121,4158.589844,4168.974121,4142.436035,4148.974121,4604.358887,4396.794922,4413.461426,4516.922852,0
336,0,0,4210.128418,4182.179688,4286.153809,4256.025879,4235.641113,4153.333496,4141.282227,4157.307617,4135.641113,4146.153809,4587.307617,4376.025879,4410.0,4500.384766,0
337,0,0,4195.256348,4164.871582,4274.230957,4242.307617,4231.538574,4140.641113,4136.282227,4158.589844,4141.410156,4159.358887,4591.025879,4374.615234,4399.743652,4491.922852,0
338,0,0,4214.358887,4172.820313,4297.94873,4258.717773,4237.436035,4148.205078,4164.487305,4184.743652,4153.717773,4158.717773,4597.436035,4416.025879,4409.487305,4505.256348,0
339,0,0,4209.102539,4152.563965,4283.333496,4241.410156,4218.461426,4128.333496,4146.410156,4173.717773,4149.743652,4151.153809,4592.05127,4422.436035,4393.717773,4500.641113,0
340,0,0,4203.205078,4161.922852,4283.205078,4243.461426,4219.358887,4132.307617,4147.94873,4172.179688,4158.461426,4150.0,4583.974121,4417.179688,4400.769043,4497.692383,0
341,0,0,4216.410156,4165.641113,4289.358887,4245.897461,4219.743652,4141.538574,4141.410156,4159.230957,4141.025879,4145.641113,4584.615234,4419.230957,4408.077148,4501.410156,0
342,0,0,4198.846191,4153.974121,4268.461426,4230.384766,4207.563965,4151.666504,4138.077148,4153.589844,4143.461426,4137.563965,4568.974121,4405.0,4387.820313,4486.282227,0
343,0,0,4210.641113,4169.102539,4284.871582,4234.615234,4217.692383,4162.436035,4149.230957,4160.897461,4140.384766,4133.974121,4580.512695,4410.256348,4387.692383,4497.563965,0
344,0,0,4225.641113,4186.025879,4303.333496,4252.563965,4225.128418,4175.256348,4151.410156,4178.077148,4162.05127,4158.846191,4602.05127,4426.410156,4407.563965,4512.05127,0
345,0,0,4205.128418,4173.333496,4283.846191,4235.897461,4213.461426,4138.077148,4137.563965,4162.05127,4145.0,4142.307617,4587.05127,4407.692383,4402.563965,4506.538574,0
346,0,0,4190.256348,4156.794922,4274.487305,4233.333496,4204.743652,4158.846191,4137.692383,4152.820313,4144.487305,4126.025879,4556.794922,4382.179688,4371.666504,4485.256348,0
347,0,0,4186.410156,4177.05127,4281.410156,4242.436035,4210.384766,4159.230957,4139.743652,4155.0,4144.230957,4143.846191,4583.846191,4389.743652,4410.769043,4495.512695,0
348,0,0,4190.641113,4170.384766,4288.205078,4233.461426,4212.05127,4143.846191,4135.641113,4163.717773,4151.922852,4143.333496,4572.436035,4391.922852,4401.538574,4507.05127,0
349,0,0,4201.794922,4189.358887,4307.436035,4247.563965,4221.538574,4138.461426,4163.717773,4190.769043,4177.307617,4176.666504,4617.820313,4425.897461,4441.538574,4531.410156,0
350,0,0,4198.846191,4175.128418,4297.820313,4245.0,4215.641113,4166.538574,4164.230957,4177.692383,4157.692383,4161.922852,4592.94873,4395.256348,4415.769043,4509.487305,0
351,0,0,4203.974121,4186.666504,4290.897461,4246.282227,4221.922852,4178.461426,4151.282227,4157.692383,4141.922852,4139.871582,4582.563965,4375.897461,4401.538574,4499.230957,0
352,0,0,4191.666504,4174.487305,4271.666504,4217.179688,4200.769043,4154.615234,4131.794922,4156.538574,4140.641113,4154.102539,4571.410156,4367.05127,4411.282227,4495.384766,0
353,0,0,4210.256348,4185.128418,4277.436035,4223.205078,4210.769043,4156.153809,4137.05127,4152.820313,4145.641113,4145.256348,4562.94873,4364.871582,4394.743652,4488.077148,0
354,0,0,4220.512695,4172.94873,4280.128418,4223.846191,4200.897461,4151.025879,4135.384766,4162.307617,4155.256348,4156.282227,4572.820313,4364.615234,4407.563965,4492.05127,0
355,0,0,4233.205078,4192.05127,4287.563965,4233.333496,4212.692383,4149.871582,4129.615234,4142.820313,4132.436035,4147.179688,4590.0,4364.102539,4410.128418,4499.743652,0
356,0,0,4210.769043,4171.282227,4270.769043,4206.282227,4197.05127,4142.05127,4127.307617,4168.589844,4168.974121,4149.230957,4570.384766,4359.615234,4389.743652,4484.615234,0
357,0,0,4221.666504,4179.358887,4278.846191,4216.410156,4212.179688,4135.384766,4135.0,4154.487305,4158.589844,4139.871582,4557.94873,4363.333496,4386.794922,4488.461426,0
358,0,0,4210.0,4178.077148,4268.717773,4216.794922,4200.0,4134.871582,4118.077148,4146.282227,4141.410156,4124.102539,4530.128418,4344.102539,4363.717773,4475.384766,0
359,0,0,4234.487305,4192.563965,4285.769043,4233.846191,4217.692383,4140.128418,4147.05127,4173.333496,4165.128418,4147.307617,4556.794922,4375.0,4396.410156,4495.256348,0
360,0,0,4249.230957,4219.102539,4294.871582,4250.128418,4223.974121,4140.0,4154.487305,4165.897461,4143.717773,4139.230957,4556.538574,4376.025879,4399.102539,4484.743652,0
361,0,0,4227.94873,4190.641113,4277.692383,4215.897461,4209.615234,4155.0,4153.077148,4170.512695,4162.179688,4135.512695,4543.205078,4364.102539,4389.358887,4452.820313,0
362,0,0,4220.128418,4186.410156,4276.666504,4209.230957,4211.153809,4151.282227,4139.230957,4148.461426,4145.256348,4129.230957,4553.077148,4356.153809,4391.794922,4440.0,0
363,0,0,4237.05127,4210.769043,4286.538574,4248.846191,4216.025879,4156.538574,4140.641113,4151.922852,4156.025879,4139.230957,4565.641113,4365.0,4412.563965,4452.307617,0
364,0,0,4227.179688,4213.974121,4283.974121,4246.538574,4216.025879,4141.922852,4136.666504,4156.922852,4151.538574,4149.102539,4560.384766,4362.307617,4413.333496,4450.128418,0
365,0,0,4228.077148,4197.94873,4288.077148,4242.692383,4222.94873,4154.487305,4150.512695,4165.256348,4152.692383,4139.230957,4571.153809,4373.077148,4401.666504,4463.205078,0
366,0,0,4236.922852,4213.717773,4293.717773,4254.358887,4228.205078,4151.153809,4147.820313,4160.384766,4157.94873,4139.615234,4563.589844,4373.717773,4396.025879,4468.846191,0
367,0,0,4237.692383,4217.820313,4294.102539,4250.0,4224.102539,4149.743652,4134.102539,4158.205078,4159.871582,4163.333496,4588.077148,4381.410156,4417.820313,4484.358887,0
368,0,0,4230.769043,4212.820313,4289.358887,4243.205078,4230.512695,4155.897461,4140.0,4159.871582,4153.589844,4154.230957,4583.589844,4374.615234,4420.641113,4485.641113,0
369,0,0,4228.974121,4206.153809,4291.922852,4243.205078,4227.692383,4156.282227,4143.461426,4152.692383,4150.897461,4143.205078,4565.897461,4376.282227,4400.0,4476.794922,0
370,0,0,4231.153809,4209.615234,4293.846191,4236.538574,4208.846191,4135.256348,4141.410156,4167.692383,4158.461426,4154.487305,4580.0,4381.410156,4413.717773,4489.102539,0
371,0,0,4231.282227,4216.410156,4299.102539,4246.153809,4237.179688,4165.128418,4161.538574,4183.077148,4185.897461,4166.025879,4604.358887,4396.794922,4432.563965,4505.641113,0
372,0,0,4237.692383,4229.871582,4302.436035,4258.333496,4235.897461,4162.563965,4162.692383,4177.563965,4158.461426,4162.179688,4593.589844,4398.205078,4413.461426,4497.692383,0
373,0,0,4234.615234,4201.410156,4301.153809,4246.538574,4217.05127,4171.922852,4143.333496,4166.153809,4159.358887,4153.717773,4577.05127,4390.384766,4405.897461,4493.205078,0
374,0,0,4215.897461,4196.666504,4290.384766,4256.666504,4223.717773,4181.025879,4147.692383,4172.436035,4165.256348,4159.615234,4578.461426,4392.179688,4400.384766,4484.743652,0
375,0,0,4209.358887,4198.974121,4279.743652,4258.205078,4216.410156,4173.461426,4133.589844,4139.358887,4140.128418,4133.589844,4554.871582,4369.230957,4385.512695,4465.128418,0
376,0,0,4205.769043,4186.794922,4275.384766,4248.589844,4220.641113,4179.871582,4134.615234,4147.307617,4140.256348,4135.384766,4556.666504,4370.256348,4378.717773,4459.230957,0
377,0,0,4222.692383,4202.692383,4297.563965,4244.743652,4225.128418,4184.102539,4148.461426,4168.077148,4154.358887,4157.692383,4586.794922,4397.179688,4399.743652,4486.538574,0
378,0,0,4204.230957,4187.436035,4269.743652,4219.743652,4217.94873,4172.436035,4132.563965,4152.820313,4155.128418,4151.410156,4566.538574,4367.563965,4383.333496,4468.717773,0
379,0,0,4212.563965,4194.487305,4280.897461,4228.461426,4223.077148,4170.256348,4138.974121,4155.384766,4141.922852,4147.563965,4565.0,4381.025879,4381.282227,4488.461426,0
380,0,0,4230.256348,4203.846191,4305.256348,4242.307617,4224.487305,4158.461426,4151.410156,4175.128418,4150.769043,4151.666504,4584.230957,4399.358887,4397.179688,4499.871582,0
381,0,0,4227.307617,4199.871582,4295.128418,4246.666504,4227.436035,4170.128418,4153.974121,4166.410156,4152.179688,4156.410156,4585.128418,4389.871582,4395.897461,4496.538574,0
382,0,0,4220.641113,4202.179688,4298.589844,4247.94873,4237.307617,4176.025879,4148.461426,4164.102539,4154.230957,4148.461426,4576.538574,4376.666504,4403.589844,4493.974121,0
383,0,0,4220.769043,4185.641113,4296.025879,4234.487305,4219.102539,4161.922852,4144.615234,4168.077148,4149.230957,4146.666504,4578.461426,4392.179688,4399.615234,4495.256348,0
384,0,0,4219.102539,4191.794922,4297.94873,4253.077148,4227.179688,4175.0,4157.820313,4188.461426,4161.153809,4152.179688,4587.563965,4394.871582,4402.179688,4497.05127,0
385,0,0,4212.179688,4185.897461,4286.153809,4243.846191,4220.897461,4169.358887,4159.358887,4164.358887,4140.641113,4132.692383,4561.410156,4373.333496,4377.563965,4475.384766,0
386,0,0,4216.410156,4188.461426,4297.179688,4249.871582,4232.692383,4154.358887,4162.307617,4166.410156,4137.94873,4148.717773,4585.512695,4383.589844,4402.436035,4486.153809,0
387,0,0,4227.692383,4206.153809,4304.487305,4263.717773,4235.0,4139.487305,4151.410156,4169.358887,4158.205078,4167.94873,4585.769043,4391.025879,4411.025879,4494.871582,0
388,0,0,4223.589844,4200.128418,4296.666504,4258.589844,4223.461426,4138.589844,4147.436035,4169.871582,4160.769043,4157.307617,4585.897461,4387.307617,4412.307617,4501.153809,0
389,0,0,4195.512695,4182.820313,4271.922852,4245.897461,4223.846191,4156.794922,4149.615234,4155.897461,4145.0,4129.743652,4565.384766,4359.230957,4392.436035,4473.333496,0
390,0,0,4214.743652,4192.179688,4285.128418,4263.077148,4232.436035,4151.025879,4145.641113,4144.487305,4134.615234,4125.641113,4564.615234,4357.05127,4399.487305,4486.538574,0
391,0,0,4209.102539,4185.256348,4283.974121,4255.128418,4223.846191,4154.743652,4148.077148,4153.589844,4147.563965,4136.153809,4578.333496,4364.358887,4404.743652,4488.974121,0
392,0,0,4202.307617,4172.94873,4267.179688,4243.717773,4211.410156,4145.256348,4146.922852,4151.794922,4145.641113,4128.589844,4567.94873,4357.307617,4395.512695,4481.153809,0
393,0,0,4199.230957,4173.205078,4265.641113,4243.333496,4216.922852,4160.256348,4142.820313,4155.897461,4151.538574,4134.871582,4574.743652,4365.0,4398.717773,4481.410156,0
394,0,0,4226.153809,4193.717773,4282.179688,4248.333496,4222.05127,4162.820313,4137.94873,4148.333496,4140.0,4128.205078,4558.077148,4366.025879,4402.436035,4494.102539,0
395,0,0,4191.410156,4162.05127,4255.641113,4210.128418,4209.358887,4152.179688,4138.974121,4148.077148,4142.692383,4129.358887,4549.358887,4346.282227,4392.05127,4470.512695,0
396,0,0,4205.512695,4182.05127,4272.179688,4232.307617,4219.871582,4140.0,4138.974121,4145.641113,4133.461426,4131.666504,4541.794922,4347.563965,4381.666504,4472.94873,0
397,0,0,4197.692383,4173.974121,4269.230957,4233.589844,4214.358887,4143.846191,4132.820313,4137.563965,4136.538574,4131.025879,4545.384766,4346.666504,4373.974121,4470.512695,0
398,0,0,4209.102539,4177.692383,4276.538574,4252.563965,4218.461426,4159.102539,4141.282227,4157.307617,4160.512695,4148.077148,4563.205078,4365.128418,4380.769043,4483.974121,0
399,0,0,4215.512695,4184.102539,4290.769043,4267.692383,4212.307617,4160.897461,4141.025879,4158.589844,4153.846191,4157.692383,4586.666504,4378.974121,4412.563965,4498.333496,0
400,0,0,4202.94873,4168.461426,4275.769043,4258.461426,4218.333496,4155.384766,4138.077148,4155.769043,4145.641113,4136.538574,4549.102539,4367.05127,4377.05127,4483.077148,0
401,0,0,4243.333496,4204.102539,4317.563965,4286.153809,4235.769043,4177.563965,4158.974121,4175.641113,4155.512695,4142.692383,4574.102539,4400.384766,4400.128418,4515.128418,0
402,0,0,4240.769043,4212.179688,4306.538574,4273.717773,4223.589844,4164.871582,4146.153809,4181.153809,4172.307617,4167.94873,4600.384766,4395.128418,4413.589844,4517.94873,0
403,0,0,4235.769043,4216.410156,4303.717773,4277.179688,4229.743652,4151.153809,4156.282227,4171.153809,4153.974121,4139.743652,4568.205078,4382.436035,4380.897461,4507.94873,0
404,0,0,4223.077148,4216.538574,4287.179688,4258.974121,4222.436035,4150.128418,4138.205078,4157.94873,4145.512695,4144.615234,4586.025879,4376.666504,4404.743652,4504.102539,0
405,0,0,4214.743652,4197.179688,4282.563965,4247.307617,4223.461426,4148.205078,4149.230957,4171.025879,4161.794922,4146.282227,4570.384766,4378.461426,4384.230957,4496.153809,0
406,0,0,4224.358887,4214.743652,4290.256348,4260.128418,4231.410156,4145.769043,4143.461426,4166.922852,4149.743652,4149.102539,4574.358887,4372.94873,4397.436035,4496.666504,0
407,0,0,4207.307617,4184.743652,4272.307617,4228.846191,4208.974121,4169.871582,4148.461426,4165.128418,4148.717773,4150.128418,4569.743652,4366.025879,4386.410156,4497.436035,0
408,0,0,4209.487305,4193.717773,4274.358887,4248.717773,4224.487305,4176.794922,4139.487305,4159.487305,4133.589844,4138.846191,4565.769043,4360.641113,4389.615234,4496.282227,0
409,0,0,4228.461426,4204.102539,4297.820313,4271.666504,4239.102539,4184.487305,4160.0,4184.615234,4150.897461,4158.077148,4584.358887,4385.384766,4415.0,4514.230957,0
410,0,0,4221.922852,4186.410156,4287.436035,4251.794922,4223.205078,4185.384766,4151.538574,4161.410156,4154.358887,4144.871582,4571.538574,4375.384766,4401.410156,4507.692383,0
411,0,0,4225.0,4199.743652,4292.436035,4255.256348,4229.487305,4167.05127,4149.743652,4154.743652,4150.512695,4145.897461,4568.333496,4375.0,4406.922852,4507.05127,0
412,0,0,4225.0,4199.743652,4296.538574,4251.794922,4230.641113,4166.282227,4160.384766,4166.538574,4150.897461,4150.512695,4589.487305,4381.282227,4418.461426,4516.794922,0
413,0,0,4212.692383,4188.077148,4283.974121,4250.128418,4235.769043,4155.0,4150.128418,4154.230957,4146.410156,4147.05127,4571.666504,4363.589844,4399.102539,4495.256348,0
414,0,0,4237.179688,4221.794922,4312.563965,4275.897461,4233.589844,4132.179688,4150.128418,4169.487305,4156.538574,4165.256348,4607.05127,4392.307617,4420.128418,4521.794922,0
415,0,0,4220.256348,4197.563965,4298.974121,4252.05127,4222.820313,4136.282227,4138.717773,4163.333496,4144.743652,4145.256348,4580.384766,4372.05127,4406.538574,4504.230957,0
416,0,0,4204.487305,4183.205078,4289.230957,4247.307617,4224.487305,4140.128418,4139.487305,4166.538574,4146.025879,4146.538574,4580.512695,4367.179688,4397.563965,4494.615234,0
417,0,0,4218.717773,4201.794922,4303.589844,4260.769043,4230.128418,4144.358887,4137.563965,4152.94873,4126.666504,4129.102539,4573.077148,4371.153809,4400.512695,4498.461426,0
418,0,0,4217.94873,4191.282227,4292.94873,4258.846191,4221.282227,4136.025879,4130.0,4149.615234,4134.871582,4127.436035,4555.256348,4365.512695,4400.897461,4490.897461,0
419,0,0,4208.461426,4184.487305,4278.461426,4248.974121,4223.717773,4134.743652,4129.871582,4150.256348,4139.358887,4139.615234,4566.666504,4367.179688,4403.461426,4487.179688,0
420,0,0,4220.641113,4201.794922,4289.102539,4261.282227,4236.282227,4153.077148,4143.205078,4160.512695,4138.846191,4142.94873,4557.179688,4367.436035,4399.102539,4486.922852,0
421,0,0,4239.358887,4219.102539,4309.230957,4272.692383,4240.384766,4158.077148,4157.94873,4177.94873,4156.794922,4164.358887,4589.358887,4397.563965,4438.205078,4507.820313,0
422,0,0,4236.794922,4206.153809,4307.563965,4272.820313,4247.820313,4185.128418,4164.743652,4175.897461,4158.589844,4162.820313,4601.153809,4394.871582,4433.589844,4511.025879,0
423,0,0,4213.974121,4176.282227,4292.94873,4256.282227,4232.307617,4173.461426,4158.589844,4174.102539,4160.897461,4148.589844,4587.307617,4381.922852,4402.563965,4491.794922,0
424,0,0,4225.384766,4184.230957,4302.820313,4270.897461,4235.512695,4185.128418,4168.974121,4173.846191,4155.0,4147.94873,4577.820313,4374.102539,4407.94873,4494.102539,0
425,0,0,4218.717773,4178.461426,4290.384766,4264.230957,4234.358887,4177.05127,4153.589844,4172.692383,4158.461426,4153.461426,4570.897461,4379.743652,4413.205078,4495.0,0
426,0,0,4233.205078,4184.871582,4308.589844,4276.282227,4230.256348,4163.974121,4153.846191,4180.384766,4155.641113,4155.897461,4600.897461,4398.077148,4431.666504,4519.102539,0
427,0,0,4233.846191,4175.641113,4306.153809,4265.256348,4218.077148,4166.666504,4158.974121,4178.333496,4162.692383,4146.025879,4586.666504,4401.922852,4412.307617,4511.538574,0
428,0,0,4210.769043,4172.436035,4280.897461,4275.256348,4229.358887,4185.512695,4145.256348,4164.230957,4155.0,4148.077148,4578.589844,4376.282227,4400.512695,4492.05127,0
429,0,0,4219.230957,4170.897461,4283.077148,4256.538574,4225.128418,4171.025879,4146.282227,4167.692383,4155.769043,4149.615234,4574.487305,4380.897461,4400.128418,4495.641113,0
430,0,0,4209.743652,4175.128418,4285.897461,4273.077148,4225.0,4167.820313,4146.153809,4152.436035,4139.743652,4141.922852,4570.0,4363.077148,4396.922852,4483.205078,0
431,0,0,4213.333496,4180.0,4282.820313,4270.384766,4223.589844,4180.769043,4145.128418,4162.05127,4145.512695,4137.05127,4554.102539,4367.563965,4386.282227,4506.282227,0
432,0,0,4215.128418,4173.205078,4283.461426,4246.538574,4220.0,4159.615234,4145.0,4171.666504,4162.94873,4160.384766,4586.410156,4375.512695,4402.94873,4505.0,0
433,0,0,4210.0,4171.153809,4288.589844,4238.205078,4215.897461,4140.0,4143.205078,4168.205078,4142.94873,4146.410156,4585.0,4370.897461,4391.025879,4499.102539,0
434,0,0,4207.307617,4168.717773,4277.05127,4242.692383,4218.974121,4126.025879,4140.0,4151.538574,4143.077148,4138.205078,4570.641113,4371.410156,4382.692383,4485.512695,0
435,0,0,4200.769043,4169.102539,4265.384766,4233.077148,4206.282227,4120.0,4136.922852,4147.563965,4139.871582,4127.436035,4547.692383,4361.410156,4387.94873,4475.384766,0
436,0,0,4216.282227,4182.307617,4281.153809,4247.563965,4217.436035,4111.538574,4141.025879,4155.384766,4146.153809,4140.641113,4549.487305,4379.230957,4383.333496,4482.05127,0
437,0,0,4200.256348,4170.128418,4266.794922,4228.589844,4219.358887,4125.384766,4141.410156,4152.179688,4131.794922,4131.794922,4542.563965,4356.922852,4363.974121,4466.794922,0
438,0,0,4211.282227,4192.307617,4278.589844,4234.230957,4217.436035,4129.102539,4136.922852,4158.077148,4141.153809,4149.102539,4583.333496,4376.025879,4393.077148,4479.102539,0
439,0,0,4209.871582,4197.563965,4273.846191,4240.769043,4232.820313,4156.410156,4156.153809,4165.0,4152.563965,4145.0,4575.128418,4379.230957,4405.769043,4484.487305,0
440,0,0,4203.077148,4184.743652,4268.205078,4225.128418,4219.358887,4150.897461,4139.615234,4154.102539,4136.025879,4146.922852,4576.666504,4367.820313,4394.487305,4483.333496,0
441,0,0,4229.743652,4212.820313,4297.05127,4257.563965,4234.615234,4159.743652,4148.461426,4151.922852,4128.589844,4136.410156,4561.153809,4379.102539,4400.769043,4496.025879,0
442,0,0,4212.692383,4183.333496,4283.077148,4235.769043,4218.589844,4158.077148,4134.102539,4160.128418,4142.94873,4145.384766,4558.077148,4378.717773,4394.615234,4488.077148,0
443,0,0,4208.077148,4166.410156,4284.102539,4246.794922,4216.410156,4154.102539,4139.615234,4155.0,4142.179688,4152.692383,4565.769043,4374.230957,4429.615234,4488.974121,0
444,0,0,4220.384766,4174.871582,4297.563965,4247.436035,4221.282227,4159.487305,4146.538574,4160.897461,4142.05127,4139.358887,4551.538574,4379.358887,4387.307617,4493.205078,0
445,0,0,4235.256348,4194.743652,4304.102539,4260.128418,4239.615234,4173.846191,4157.05127,4173.077148,4160.256348,4165.0,4618.846191,4398.589844,4413.846191,4516.282227,0
446,0,0,4244.230957,4212.179688,4318.717773,4266.282227,4233.589844,4161.282227,4150.897461,4168.461426,4152.692383,4157.436035,4604.487305,4403.717773,4412.563965,4522.94873,0
447,0,0,4220.769043,4199.230957,4301.666504,4258.589844,4235.769043,4172.94873,4161.794922,4184.615234,4174.358887,4173.589844,4598.461426,4391.410156,4406.538574,4502.820313,0
448,0,0,4204.102539,4196.025879,4278.717773,4245.0,4226.153809,4160.256348,4143.846191,4147.820313,4136.666504,4145.897461,4569.487305,4360.897461,4387.94873,4486.794922,0
449,0,0,4217.94873,4188.461426,4296.153809,4257.307617,4223.461426,4175.0,4164.102539,4187.307617,4161.153809,4157.179688,4584.743652,4392.820313,4397.563965,4498.205078,0
450,0,0,4226.282227,4204.743652,4305.512695,4270.641113,4244.230957,4180.384766,4172.692383,4179.358887,4154.871582,4159.871582,4587.179688,4389.487305,4396.666504,4500.512695,0
451,0,0,4215.128418,4187.179688,4292.692383,4258.717773,4228.205078,4174.871582,4152.692383,4173.077148,4155.897461,4153.077148,4580.641113,4379.230957,4390.769043,4497.307617,0
452,0,0,4228.461426,4200.256348,4303.461426,4262.563965,4228.974121,4170.897461,4159.102539,4179.230957,4152.94873,4148.589844,4569.615234,4393.589844,4394.230957,4504.871582,0
453,0,0,4226.794922,4201.666504,4296.153809,4265.512695,4237.820313,4170.641113,4158.717773,4184.230957,4179.230957,4166.153809,4573.589844,4391.538574,4390.897461,4504.487305,0
454,0,0,4231.282227,4193.974121,4298.205078,4260.128418,4223.077148,4168.077148,4153.461426,4177.307617,4159.871582,4153.717773,4569.615234,4387.563965,4390.897461,4500.897461,0
455,0,0,4207.692383,4179.487305,4272.94873,4248.461426,4221.538574,4170.769043,4144.102539,4155.256348,4137.692383,4125.384766,4537.94873,4355.769043,4377.94873,4467.692383,0
456,0,0,4218.205078,4197.307617,4287.307617,4263.717773,4227.94873,4186.410156,4145.769043,4167.94873,4158.589844,4161.410156,4563.846191,4382.692383,4404.487305,4495.641113,0
457,0,0,4214.743652,4185.769043,4280.641113,4259.871582,4230.897461,4193.461426,4148.974121,4162.692383,4153.846191,4161.922852,4572.436035,4377.820313,4412.820313,4491.025879,0
458,0,0,4213.077148,4191.410156,4280.384766,4272.563965,4236.025879,4167.563965,4153.974121,4176.666504,4170.384766,4162.563965,4570.256348,4382.307617,4396.282227,4497.05127,0
459,0,0,4210.0,4170.256348,4271.922852,4258.846191,4217.307617,4166.410156,4147.436035,4151.410156,4130.769043,4133.077148,4552.692383,4376.282227,4389.615234,4490.384766,0
460,0,0,4198.461426,4154.871582,4268.333496,4248.205078,4214.487305,4149.230957,4145.256348,4155.256348,4136.025879,4127.563965,4551.282227,4373.461426,4365.128418,4479.615234,0
461,0,0,4194.871582,4165.256348,4258.333496,4254.743652,4215.769043,4140.384766,4126.538574,4147.179688,4128.077148,4119.487305,4542.563965,4362.820313,4375.512695,4478.846191,0
462,0,0,4209.230957,4168.205078,4276.410156,4256.410156,4218.846191,4147.05127,4151.410156,4168.205078,4153.205078,4143.333496,4573.846191,4387.436035,4387.05127,4489.102539,0
463,0,0,4216.410156,4184.230957,4282.307617,4272.692383,4228.589844,4162.436035,4154.615234,4170.384766,4155.0,4151.282227,4592.05127,4380.128418,4390.256348,4493.589844,0
464,0,0,4206.410156,4178.974121,4266.922852,4254.871582,4210.0,4144.230957,4133.846191,4156.794922,4145.0,4133.461426,4574.230957,4366.153809,4379.487305,4479.871582,0
465,0,0,4223.205078,4182.563965,4278.717773,4254.743652,4218.333496,4171.153809,4147.179688,4170.512695,4153.077148,4147.307617,4579.487305,4379.487305,4394.615234,4496.410156,0
466,0,0,4228.333496,4205.384766,4284.743652,4272.179688,4239.358887,4182.05127,4137.94873,4149.871582,4137.179688,4136.153809,4570.256348,4370.0,4391.922852,4491.153809,0
467,0,0,4219.358887,4196.666504,4283.717773,4262.307617,4226.922852,4212.05127,4142.307617,4161.153809,4145.128418,4135.897461,4559.615234,4370.384766,4379.487305,4487.05127,0
468,0,0,4204.358887,4181.410156,4278.461426,4261.282227,4214.871582,4176.666504,4140.128418,4165.769043,4158.846191,4135.897461,4563.461426,4365.128418,4386.410156,4489.230957,0
469,0,0,4211.794922,4180.641113,4284.615234,4258.461426,4219.487305,4166.410156,4148.461426,4170.384766,4152.692383,4130.384766,4549.743652,4366.153809,4373.589844,4486.282227,0
470,0,0,4219.230957,4199.102539,4289.230957,4265.256348,4226.282227,4148.589844,4160.384766,4177.563965,4154.358887,4142.820313,4577.179688,4376.794922,4381.410156,4497.94873,0
471,0,0,4209.871582,4202.436035,4281.153809,4262.563965,4223.333496,4131.282227,4139.102539,4156.666504,4145.384766,4138.717773,4570.384766,4366.666504,4388.974121,4491.666504,0
472,0,0,4238.974121,4219.358887,4302.94873,4283.717773,4241.025879,4137.179688,4151.410156,4156.538574,4122.05127,4112.94873,4565.128418,4391.794922,4406.025879,4509.487305,0
473,0,0,4206.666504,4186.410156,4271.538574,4245.0,4228.205078,4137.05127,4150.0,4174.743652,4156.153809,4128.333496,4536.922852,4371.410156,4367.692383,4476.922852,0
474,0,0,4208.333496,4204.871582,4265.512695,4250.641113,4221.282227,4120.641113,4135.256348,4164.358887,4151.794922,4158.461426,4573.077148,4372.436035,4401.922852,4490.769043,0
475,0,0,4249.358887,4247.563965,4309.871582,4294.871582,4249.102539,4149.102539,4161.922852,4180.769043,4162.307617,4184.358887,4612.563965,4404.871582,4441.538574,4526.794922,0
476,0,0,4214.615234,4191.922852,4281.538574,4242.307617,4222.692383,4143.717773,4131.666504,4166.922852,4153.974121,4146.666504,4555.897461,4372.563965,4377.563965,4493.205078,0
477,0,0,4217.307617,4201.794922,4281.410156,4255.897461,4221.794922,4157.307617,4139.102539,4152.307617,4145.128418,4142.307617,4569.487305,4375.641113,4386.410156,4493.717773,0
478,0,0,4218.589844,4190.384766,4285.0,4237.94873,4218.333496,4152.179688,4151.794922,4166.410156,4161.153809,4165.0,4589.358887,4372.563965,4411.025879,4496.666504,0
479,0,0,4251.025879,4229.487305,4322.692383,4290.641113,4241.666504,4152.563965,4166.666504,4191.666504,4167.820313,4183.461426,4607.692383,4412.307617,4423.077148,4530.128418,0
480,0,0,4210.897461,4204.358887,4272.307617,4261.025879,4242.94873,4161.666504,4145.641113,4152.94873,4130.0,4129.871582,4547.692383,4357.563965,4354.615234,4475.641113,0
481,0,0,4243.205078,4224.743652,4300.897461,4269.487305,4226.025879,4134.743652,4147.94873,4172.820313,4155.128418,4162.563965,4586.666504,4399.358887,4404.102539,4513.205078,0
482,0,0,4227.307617,4205.128418,4285.897461,4255.0,4227.563965,4132.820313,4152.94873,4162.692383,4141.794922,4147.05127,4562.94873,4378.461426,4376.794922,4502.05127,0
483,0,0,4226.282227,4214.871582,4278.846191,4264.230957,4238.717773,4150.256348,4155.128418,4162.563965,4152.692383,4154.102539,4565.128418,4378.333496,4385.769043,4492.436035,0
484,0,0,4247.820313,4231.025879,4298.974121,4280.0,4228.205078,4152.563965,4159.230957,4171.922852,4162.820313,4173.717773,4600.0,4405.512695,4436.666504,4521.025879,0
485,0,0,4238.461426,4218.589844,4302.563965,4275.384766,4246.794922,4156.282227,4156.538574,4170.384766,4150.512695,4147.307617,4593.974121,4397.820313,4425.256348,4512.94873,0
486,0,0,4222.820313,4193.461426,4289.743652,4268.461426,4249.102539,4171.922852,4160.512695,4168.846191,4151.538574,4133.846191,4558.205078,4381.666504,4384.230957,4491.794922,0
487,0,0,4206.666504,4191.922852,4271.538574,4255.256348,4227.692383,4148.205078,4128.077148,4144.615234,4142.436035,4131.410156,4542.05127,4363.333496,4369.487305,4477.179688,0
488,0,0,4224.487305,4188.205078,4296.025879,4260.256348,4229.102539,4174.615234,4148.846191,4165.897461,4162.307617,4146.282227,4572.307617,4380.384766,4381.794922,4495.769043,0
489,0,0,4202.563965,4173.589844,4269.487305,4246.282227,4223.077148,4181.922852,4138.205078,4159.230957,4149.358887,4133.461426,4555.384766,4358.333496,4368.717773,4478.461426,0
490,0,0,4216.153809,4174.871582,4279.230957,4252.692383,4219.358887,4150.897461,4137.436035,4166.153809,4150.0,4145.769043,4569.358887,4376.538574,4383.461426,4487.94873,0
491,0,0,4226.666504,4183.974121,4298.589844,4268.461426,4236.282227,4170.769043,4150.641113,4169.743652,4157.05127,4147.820313,4569.102539,4390.641113,4382.05127,4500.641113,0
492,0,0,4226.666504,4184.871582,4292.05127,4262.179688,4230.384766,4166.153809,4158.846191,4172.94873,4157.692383,4153.205078,4582.179688,4388.077148,4398.589844,4494.102539,0
493,0,0,4237.563965,4187.179688,4298.974121,4260.384766,4237.820313,4157.436035,4148.974121,4172.692383,4149.487305,4142.692383,4584.230957,4396.666504,4408.077148,4506.922852,0
494,0,0,4250.897461,4181.538574,4309.358887,4268.589844,4234.358887,4167.820313,4148.974121,4164.358887,4137.436035,4137.307617,4573.333496,4395.256348,4404.230957,4508.717773,0
495,0,0,4243.717773,4173.333496,4295.256348,4260.256348,4230.384766,4166.538574,4154.102539,4172.179688,4162.94873,4147.179688,4581.794922,4398.846191,4406.666504,4502.436035,0
496,0,0,4213.717773,4165.0,4279.871582,4240.769043,4225.641113,4167.94873,4135.384766,4164.358887,4167.94873,4145.0,4577.307617,4381.410156,4380.256348,4481.922852,0
497,0,0,4227.692383,4185.897461,4290.0,4264.358887,4233.717773,4175.897461,4145.512695,4161.922852,4169.358887,4150.0,4590.128418,4392.436035,4401.025879,4503.974121,0
498,0,0,4225.512695,4186.153809,4285.512695,4258.077148,4227.563965,4178.077148,4139.230957,4147.820313,4158.846191,4150.641113,4577.179688,4376.153809,4390.256348,4495.0,0
499,0,0,4242.563965,4201.153809,4298.077148,4265.512695,4239.358887,4184.743652,4153.333496,4154.871582,4161.538574,4164.743652,4603.333496,4389.615234,4409.358887,4507.563965,0
